# time(ns) distance (A) angle (deg)
4.390 5.730 89.586
4.460 4.860 85.432
4.530 5.040 31.208
4.540 5.310 67.330
4.550 4.030 87.053
4.560 4.860 80.206
4.880 4.220 75.751
4.890 4.070 78.403
4.950 5.830 88.817
5.090 5.800 82.204
5.110 5.760 73.176
5.470 5.700 87.248
5.540 5.300 81.612
5.550 4.600 51.719
5.560 4.660 69.976
5.570 5.160 40.253
5.580 4.820 40.343
5.590 4.800 55.244
5.600 4.710 50.628
5.610 4.370 36.442
5.620 5.330 64.538
5.630 3.960 54.186
5.640 5.040 69.061
5.650 5.170 60.204
5.660 5.390 63.834
5.670 5.090 33.706
5.680 4.690 52.988
5.690 5.170 46.193
5.700 4.120 22.095
5.710 4.450 52.938
5.720 5.310 87.608
5.730 4.560 46.107
5.740 4.540 28.836
5.750 4.350 27.769
5.760 4.020 23.416
5.770 4.620 58.990
5.780 5.030 38.327
5.800 5.920 39.635
5.810 5.570 15.261
5.820 5.410 22.120
5.830 5.510 17.570
5.870 5.690 36.584
5.890 5.810 6.895
5.920 5.560 42.866
5.970 5.690 73.228
5.980 5.440 17.556
6.000 6.000 9.015
6.010 5.690 27.893
6.070 5.450 81.999
6.080 5.970 84.905
6.130 5.040 80.628
6.260 5.560 87.507
6.740 5.690 88.484
6.980 5.950 87.727
7.090 4.980 89.861
7.160 5.430 83.510
7.350 5.620 86.446
7.530 5.580 86.569
7.730 5.540 83.669
8.250 5.810 61.163
8.900 5.810 85.148
10.000 5.770 21.986
19.190 5.800 80.463
20.710 6.000 63.860
20.730 5.750 41.427
20.970 6.000 85.966
21.190 5.840 86.985
21.220 5.950 89.888
21.310 5.580 84.100
21.470 5.990 83.908
21.590 5.950 71.563
21.650 5.310 85.064
21.700 5.740 84.485
21.710 5.280 88.626
21.750 5.950 67.280
21.760 4.620 85.790
21.770 5.640 72.976
21.820 5.690 72.985
21.850 5.860 57.946
21.860 5.950 48.936
21.900 5.760 77.350
21.950 4.740 82.535
21.960 5.150 87.393
22.100 5.540 58.068
22.120 5.930 65.278
22.130 5.680 78.748
22.200 5.070 79.864
22.240 5.210 86.624
22.250 4.870 81.548
22.280 4.830 85.184
22.290 5.360 71.913
22.940 5.240 62.369
23.240 5.730 70.809
24.180 5.160 61.211
24.210 4.950 89.591
24.310 5.280 70.214
24.320 5.430 86.622
24.330 5.140 89.749
24.340 4.680 86.214
24.500 5.160 63.536
24.530 4.370 89.062
24.540 4.700 52.106
24.560 5.780 57.223
24.570 5.020 64.989
24.690 4.780 15.495
24.700 5.090 84.955
24.710 4.890 78.379
24.740 4.960 53.383
24.790 4.930 82.794
24.830 4.770 89.327
24.860 4.840 51.777
24.870 5.770 70.642
24.880 5.470 82.454
24.890 5.560 77.307
24.900 5.670 21.512
24.940 5.230 86.966
24.960 5.940 51.497
24.980 5.600 30.611
24.990 5.880 41.562
25.000 5.240 64.356
25.050 5.020 84.307
25.190 5.400 53.730
25.200 4.170 81.785
25.210 4.700 52.860
25.290 5.680 67.886
25.300 5.180 33.348
25.310 5.340 84.494
25.330 5.080 62.765
25.340 5.680 79.641
25.350 5.450 77.274
25.360 5.310 24.712
25.380 5.500 56.260
25.390 5.650 56.898
25.400 4.900 83.640
25.410 5.050 58.358
25.420 5.200 68.697
25.430 5.470 21.274
25.440 5.010 79.196
25.450 5.620 28.303
25.490 4.830 84.616
25.540 4.980 72.153
25.590 5.610 66.386
25.620 5.320 42.584
25.630 5.570 46.075
25.660 5.570 56.224
25.680 5.410 80.821
25.710 5.120 65.387
25.720 5.190 83.183
25.730 5.860 41.850
25.740 5.460 37.712
25.790 5.270 57.897
25.800 5.460 16.925
25.810 5.400 18.188
25.840 6.000 13.963
25.850 4.910 10.269
25.860 5.730 42.777
25.880 5.500 18.115
26.010 5.220 11.562
26.020 5.820 20.991
26.030 5.930 10.700
26.050 5.710 16.139
26.060 4.820 76.703
26.070 5.330 57.057
26.080 4.860 79.158
26.090 5.150 33.638
26.120 5.790 59.369
26.140 5.960 34.167
26.160 5.430 77.212
26.180 5.330 65.066
26.200 5.540 49.667
26.210 5.330 74.030
26.250 5.400 65.672
26.260 5.850 31.966
26.280 5.990 59.336
26.290 5.970 48.119
26.300 5.520 59.578
26.310 5.880 55.552
26.320 5.630 46.066
26.330 4.610 68.771
26.340 4.870 63.951
26.350 4.990 31.789
26.360 5.650 40.610
26.370 5.700 42.270
26.380 4.600 68.221
26.390 4.940 74.558
26.410 5.900 42.421
26.460 5.940 42.246
26.530 5.780 55.106
26.540 5.980 23.357
26.550 5.600 22.273
26.570 5.880 20.672
26.580 5.880 31.821
26.610 5.470 42.175
26.620 5.800 26.045
26.630 5.890 51.474
26.650 5.960 35.975
26.680 5.890 51.716
26.720 5.510 36.793
26.730 5.540 64.037
26.740 4.660 83.193
26.770 5.990 64.742
26.800 5.780 68.256
26.810 5.850 72.093
26.820 5.320 89.501
26.840 5.270 43.565
26.850 4.710 79.261
26.860 4.970 54.050
26.870 4.620 42.102
26.880 5.920 16.596
26.890 4.660 75.978
26.900 5.150 28.726
26.910 5.090 39.919
26.930 5.400 52.700
26.940 5.850 50.243
26.950 5.230 47.418
26.960 5.520 42.020
26.970 5.440 46.904
26.980 5.560 19.649
26.990 5.260 34.195
27.000 5.670 24.219
27.010 5.250 61.703
27.020 5.420 55.365
27.030 5.130 49.334
27.040 5.290 47.821
27.050 5.270 43.742
27.060 5.450 27.873
27.100 5.320 59.764
27.120 5.700 26.799
27.130 5.890 43.049
27.140 4.700 70.124
27.150 5.890 39.959
27.160 5.860 19.038
27.170 5.760 31.710
27.180 5.640 45.309
27.190 5.490 79.809
27.240 5.800 58.995
27.250 5.040 81.991
27.260 5.870 55.355
27.270 5.960 24.421
27.290 5.800 17.580
27.320 5.690 75.418
27.350 5.830 57.133
27.360 5.150 76.825
27.480 5.820 31.936
27.520 5.690 57.322
28.330 5.890 78.620
28.550 5.190 78.947
28.560 5.330 79.842
28.570 5.570 74.152
28.580 5.010 60.669
28.610 5.850 71.912
28.910 5.780 73.157
28.920 5.810 75.503
29.270 5.560 72.856
29.290 5.670 73.341
29.300 5.830 71.306
29.890 5.730 74.241
29.920 5.730 74.209
29.930 5.870 89.911
29.940 5.630 51.287
29.950 5.390 71.579
29.960 5.610 89.091
30.040 5.910 71.180
30.170 5.800 80.219
30.210 5.870 72.643
30.310 5.910 74.160
30.370 5.940 69.866
30.910 5.460 56.165
30.970 5.720 85.944
30.980 5.260 86.578
30.990 4.900 87.433
31.000 4.570 84.106
31.020 4.730 78.431
31.070 5.250 77.059
31.080 5.660 55.184
31.090 5.940 53.960
31.100 4.510 64.236
31.120 5.370 49.111
31.130 4.410 69.064
31.140 4.840 42.024
31.150 5.950 54.677
31.160 5.390 62.042
31.170 4.910 38.678
31.180 5.510 78.552
31.200 4.960 75.454
31.210 4.920 85.876
31.230 5.130 52.897
31.270 5.650 77.594
31.450 5.660 44.614
31.560 5.750 33.562
31.600 5.470 32.575
31.610 4.790 53.060
31.620 5.830 47.947
31.730 5.850 47.504
31.740 5.610 26.850
31.820 5.130 27.323
31.830 5.920 16.281
31.850 5.350 39.687
31.860 5.520 31.703
31.880 5.730 44.463
31.910 5.140 68.125
31.920 5.060 71.004
31.930 5.190 34.483
31.940 5.550 33.558
31.950 5.970 40.584
32.020 5.640 11.283
32.040 5.490 31.379
32.060 5.530 28.620
32.070 5.880 29.565
32.080 5.990 26.281
34.250 5.440 64.081
34.790 4.600 76.134
34.810 5.770 79.316
34.820 5.290 72.508
38.480 5.820 89.973
38.750 5.880 77.314
38.790 5.790 70.772
38.850 5.490 32.725
38.880 5.460 79.274
38.910 5.800 80.298
38.920 5.750 71.487
39.340 5.610 86.297
39.470 5.870 85.199
39.720 5.650 78.211
39.740 5.890 76.751
39.750 5.480 79.271
39.760 5.830 62.794
39.770 5.000 81.414
39.780 4.970 89.473
39.790 5.660 60.475
39.800 5.300 76.663
39.810 5.660 81.470
39.890 5.670 86.040
39.900 5.740 72.431
40.040 5.140 63.286
40.060 5.530 61.945
40.070 5.310 58.328
40.080 5.780 76.421
40.100 5.500 75.192
40.110 5.050 80.476
40.240 5.290 75.528
40.460 5.730 76.655
40.820 5.690 86.800
41.000 4.970 71.567
41.100 5.070 69.510
41.110 5.320 76.264
41.120 5.150 70.268
41.130 5.890 80.491
41.170 5.570 69.679
41.180 5.050 78.854
41.190 4.850 76.393
41.200 4.990 62.857
41.210 5.090 59.225
41.230 5.630 83.836
41.250 4.780 78.205
41.270 5.100 83.012
41.300 5.220 76.243
41.310 5.480 89.493
41.330 5.440 52.177
41.340 5.380 82.792
41.350 5.790 80.743
41.360 5.390 72.984
41.370 5.710 77.930
41.380 5.810 58.323
41.400 5.440 89.072
41.470 5.510 40.386
41.480 5.080 84.898
41.490 4.930 62.952
41.510 5.630 58.652
41.540 5.220 79.397
41.550 5.860 68.829
41.560 5.150 80.324
41.700 5.930 80.291
41.820 4.810 80.112
41.840 5.690 87.971
41.860 5.150 71.749
41.870 5.090 60.406
41.890 5.810 87.058
41.900 5.150 88.028
41.910 5.100 71.523
41.920 5.260 81.958
41.940 5.170 86.537
41.990 5.670 66.427
42.020 5.700 84.830
42.030 5.030 67.853
42.060 5.270 33.713
42.070 5.290 51.720
42.080 6.000 62.311
42.130 5.630 82.859
42.180 4.430 64.562
42.190 5.430 34.646
42.630 5.740 59.488
42.700 5.920 59.876
42.710 5.030 22.536
42.730 5.710 21.146
42.750 5.090 52.652
42.760 5.220 31.636
42.880 5.820 80.697
42.900 5.510 86.363
42.930 5.240 86.584
42.940 5.710 63.470
42.950 5.740 81.171
43.110 5.620 76.991
43.130 5.430 81.585
43.150 5.670 86.948
43.160 4.680 86.640
43.170 5.910 62.737
43.190 5.370 60.985
43.200 5.890 75.321
43.210 5.800 72.582
43.220 5.810 60.525
43.240 5.530 56.539
43.250 4.980 72.125
45.800 5.950 57.528
45.810 5.200 41.830
46.120 5.920 70.446
46.130 5.290 67.349
46.140 5.860 66.682
46.240 5.400 60.379
46.250 5.650 55.445
46.440 5.660 42.606
46.470 5.670 52.982
46.480 5.960 62.449
46.500 5.620 71.583
46.520 5.970 40.620
46.530 5.150 44.184
46.540 5.580 76.498
46.580 5.500 82.195
46.630 5.910 58.399
46.680 5.860 89.169
46.690 5.560 70.754
46.740 5.570 79.565
48.810 5.830 33.732
48.860 5.490 75.678
48.910 5.860 64.970
48.980 5.970 84.234
50.930 5.810 83.193
54.430 5.940 76.625
54.500 5.960 67.752
54.510 5.770 76.956
54.520 5.410 82.438
54.530 5.960 85.525
54.540 5.790 72.565
54.550 6.000 68.803
54.560 5.270 89.710
54.570 5.460 83.170
54.660 5.930 59.707
54.700 5.730 77.765
54.710 5.840 88.723
54.750 5.880 30.335
54.760 5.150 31.729
54.790 5.870 83.808
54.830 5.980 70.537
54.890 5.980 76.097
54.900 5.960 79.040
54.910 5.740 80.856
55.000 5.960 71.691
55.030 5.510 81.565
55.280 4.970 44.593
55.290 5.040 32.342
55.300 5.160 38.688
55.310 4.510 47.846
55.320 4.530 40.619
55.330 5.090 36.905
55.340 4.780 83.389
55.400 5.400 76.470
55.410 5.390 89.400
55.660 5.850 82.842
55.670 5.560 56.634
55.680 5.760 75.091
55.690 5.940 84.702
55.700 5.890 61.545
55.710 5.810 73.023
55.720 5.800 80.725
55.740 5.950 62.957
55.800 5.740 78.239
55.810 5.820 67.315
55.820 5.700 75.065
55.840 5.860 81.590
56.070 5.890 73.714
56.220 5.960 51.963
56.240 5.620 59.211
56.380 5.750 68.434
56.390 5.050 78.396
56.400 5.570 70.529
63.970 5.000 64.288
64.470 5.380 87.715
64.900 5.270 86.501
64.960 5.530 77.375
66.290 5.440 86.650
67.640 5.590 67.564
67.650 5.300 72.489
67.660 5.450 77.240
68.720 5.980 76.528
68.730 5.390 82.297
68.930 5.980 85.542
69.920 5.750 77.735
70.390 5.690 9.042
70.460 5.720 10.833
70.910 5.870 72.761
70.920 5.530 72.050
70.990 5.980 74.329
71.010 5.820 76.081
71.020 5.900 82.274
71.030 5.990 76.768
71.140 5.790 85.041
71.480 5.710 67.489
71.560 5.930 76.908
71.580 5.740 86.742
71.600 5.700 76.165
71.610 5.820 76.635
71.620 4.960 84.886
71.650 5.390 73.086
71.660 5.800 75.070
71.690 5.920 81.258
71.700 5.990 81.795
71.740 4.630 84.547
71.760 5.420 77.097
72.550 5.470 87.831
72.660 5.410 87.040
72.790 5.610 83.004
72.860 5.660 83.619
73.010 5.980 78.131
73.030 5.730 81.387
73.040 5.530 80.827
73.050 5.390 82.613
73.060 5.650 73.689
73.070 5.560 83.711
73.340 5.910 74.840
73.420 5.740 86.255
73.470 5.910 79.017
73.490 5.710 85.195
73.500 5.750 88.342
73.610 5.820 89.765
74.160 5.530 70.498
74.170 5.740 79.857
74.180 5.370 75.606
74.190 5.350 83.991
74.200 5.970 78.476
74.550 5.980 83.229
74.570 5.800 75.561
74.620 5.040 79.404
74.630 4.990 74.542
74.640 5.180 69.147
74.650 4.890 70.725
74.660 5.750 78.717
74.670 5.920 79.862
74.680 5.550 81.314
74.690 5.540 89.081
74.700 5.470 69.148
74.710 5.160 70.327
74.730 5.240 88.517
74.740 5.050 81.752
74.750 5.320 82.633
74.760 5.110 89.282
74.780 5.400 79.415
74.790 5.740 83.704
74.800 5.370 86.194
74.810 4.940 75.787
74.820 5.620 77.394
74.830 5.790 69.269
74.840 5.650 77.982
74.850 5.630 81.736
74.880 5.700 88.530
74.920 5.560 73.242
74.930 5.950 82.019
74.950 5.700 76.428
74.960 5.340 77.785
74.970 5.100 83.731
74.980 5.430 80.063
74.990 5.140 75.401
75.000 5.890 64.251
75.010 5.790 71.341
75.020 5.790 83.969
75.070 5.880 72.287
75.080 5.350 75.964
75.090 5.940 73.102
75.100 5.450 80.534
75.130 5.490 59.298
75.140 5.170 84.361
75.160 5.220 87.538
75.170 5.150 73.884
75.180 5.480 69.702
75.190 5.300 74.481
75.200 5.140 65.785
75.210 5.800 72.509
75.310 5.910 84.089
75.320 5.700 78.481
75.470 5.710 77.887
75.480 5.700 71.511
75.490 5.440 80.702
75.500 5.660 72.392
75.510 5.000 73.760
75.520 5.290 81.436
75.530 5.300 82.004
75.540 5.680 62.921
75.560 5.680 77.412
75.680 5.740 71.578
75.690 5.490 88.687
75.700 5.400 56.769
75.710 5.530 57.987
75.830 5.990 70.411
75.840 5.950 70.618
75.850 5.430 72.080
76.060 5.400 85.976
76.080 5.990 72.583
76.120 5.810 81.582
76.130 5.980 60.012
76.140 5.660 83.930
76.150 5.410 88.561
76.160 5.480 73.131
76.180 5.710 72.873
76.190 5.920 86.556
76.210 5.270 85.695
76.220 5.870 76.860
76.240 5.480 77.064
76.260 5.460 79.025
76.270 5.850 58.762
76.350 5.510 72.990
76.360 5.460 72.882
76.370 5.540 87.253
76.380 5.950 71.727
76.390 5.820 74.818
76.400 5.700 89.971
76.410 5.970 85.318
76.510 5.950 83.884
76.520 5.400 71.082
76.530 5.920 73.633
76.610 5.710 79.099
76.640 5.770 85.078
76.650 4.620 75.320
76.660 4.910 72.363
76.690 4.580 57.889
76.720 5.610 86.963
76.790 5.900 79.671
76.900 5.920 85.972
76.930 5.540 84.612
76.940 5.720 72.440
76.960 5.550 79.002
77.000 5.410 88.948
77.160 5.810 82.482
77.300 5.970 72.030
77.420 5.330 84.078
77.440 5.790 67.864
77.460 5.020 88.477
77.480 5.430 83.501
77.560 4.910 83.393
77.590 4.540 79.675
77.600 4.470 86.985
77.630 4.750 80.904
77.860 5.810 85.462
77.870 5.970 81.459
77.970 5.330 70.435
78.050 5.980 87.176
78.220 5.100 89.450
78.320 5.920 63.926
78.580 5.700 82.572
78.970 5.840 72.864
79.030 5.370 45.073
79.040 5.880 76.363
79.050 5.240 37.872
79.060 5.750 86.849
79.070 5.640 85.335
79.160 5.970 48.148
79.620 5.770 67.237
79.770 5.800 83.626
79.790 5.880 71.105
79.870 5.900 83.266
79.880 5.780 72.398
79.950 5.920 81.908
80.070 5.830 48.253
80.110 5.310 53.117
80.120 5.430 77.589
80.130 4.710 64.489
80.140 4.650 65.890
80.150 4.790 65.827
80.160 5.050 83.636
80.170 5.200 56.385
80.210 5.910 70.484
80.330 5.330 84.764
80.360 5.790 78.917
80.410 5.900 78.935
80.520 5.380 57.362
80.760 6.000 33.479
80.960 5.170 83.248
80.980 5.810 74.011
81.010 5.880 13.076
81.020 5.630 41.990
81.030 5.090 86.486
81.130 5.630 72.325
81.140 5.800 58.225
81.160 5.640 40.181
81.250 5.890 48.587
81.300 5.390 45.070
81.310 5.620 69.614
81.320 5.910 77.577
81.330 5.060 53.853
81.370 5.810 45.354
81.490 5.950 58.141
81.560 5.880 55.471
81.570 5.630 53.844
81.600 5.320 66.416
81.610 5.450 39.410
81.620 5.850 22.579
81.640 5.770 36.246
81.650 5.540 52.728
81.690 5.350 37.514
81.700 5.510 50.638
81.710 5.410 87.008
81.720 5.820 50.236
81.730 5.740 59.835
81.750 5.730 82.333
81.800 5.810 38.164
81.820 5.580 35.645
81.830 5.880 52.345
81.850 5.490 29.532
83.030 6.000 85.767
83.080 5.760 82.840
83.100 5.870 85.610
83.530 5.950 77.722
83.560 6.000 59.464
83.900 5.840 77.486
84.290 5.540 76.833
84.300 5.960 71.883
84.330 5.650 75.742
84.340 5.630 75.012
84.350 6.000 65.915
84.360 5.970 84.121
84.410 5.830 82.404
84.430 5.860 77.620
84.440 5.170 83.698
84.450 5.680 78.988
84.460 4.660 84.033
84.480 5.480 79.787
84.490 5.350 72.643
84.500 4.850 83.926
84.510 6.000 71.551
84.520 5.750 65.275
84.540 5.750 87.779
84.600 5.860 78.443
85.220 5.820 83.849
85.240 5.300 65.759
85.280 5.260 68.237
85.310 5.730 77.593
85.350 5.900 51.239
89.590 5.840 64.752
89.650 5.610 48.055
89.660 4.820 68.654
89.670 5.290 65.263
89.680 5.460 47.326
89.690 5.850 57.065
89.700 6.000 46.120
89.710 5.930 68.074
89.720 5.410 83.093
89.730 5.750 84.482
89.840 6.000 75.608
90.210 5.430 87.288
90.220 5.630 79.734
90.310 5.750 61.196
90.520 5.440 71.589
90.530 5.950 68.105
90.600 5.200 72.155
90.620 5.470 67.689
90.630 5.980 29.070
90.700 5.960 86.672
90.710 5.880 84.868
90.740 5.950 79.270
90.820 5.620 54.247
90.870 5.820 68.813
90.880 4.830 82.302
90.900 5.870 73.834
90.910 5.770 88.837
90.960 5.660 74.766
91.050 5.390 79.655
91.060 5.640 82.556
91.070 5.810 81.943
91.130 5.800 52.334
91.160 5.720 80.638
91.210 5.810 63.821
91.240 5.680 82.601
91.250 5.600 85.494
91.260 5.440 74.953
91.280 5.650 75.730
91.290 5.360 76.357
91.300 5.940 64.175
91.320 5.970 67.413
91.330 5.680 69.138
91.390 5.290 60.927
91.410 5.360 78.006
91.430 5.710 63.364
91.490 5.720 88.532
91.550 5.950 88.254
91.710 5.980 81.266
91.930 5.760 87.014
91.960 5.520 88.620
91.970 5.280 83.705
91.990 5.690 89.552
92.010 5.740 88.273
92.100 5.630 75.486
92.120 5.230 37.516
92.190 5.910 6.955
92.200 6.000 25.959
92.210 5.680 18.932
92.220 5.950 36.435
92.260 5.820 32.442
92.310 5.640 37.849
92.320 5.160 36.010
92.330 4.800 36.736
92.340 5.500 72.024
92.350 5.620 41.946
92.360 5.260 29.157
92.370 5.770 51.364
92.390 6.000 24.326
92.950 5.680 84.468
92.990 5.740 87.233
93.350 5.540 88.889
93.370 5.140 80.076
93.380 5.730 74.723
93.680 4.270 65.712
93.690 4.390 63.460
93.700 4.580 78.541
93.710 5.020 82.215
93.720 4.690 82.837
93.730 4.190 68.423
93.810 5.420 75.599
93.900 4.940 70.936
93.990 5.840 83.222
94.080 5.430 88.037
94.280 5.750 80.565
94.360 5.720 72.389
94.380 5.800 73.645
94.390 5.740 65.267
94.410 5.750 68.884
94.430 5.370 74.837
94.470 5.680 89.557
95.790 4.680 76.647
95.820 5.400 77.829
95.860 4.570 76.691
95.870 4.970 73.583
95.880 5.080 72.774
95.890 5.490 76.733
95.900 4.820 56.944
95.910 5.000 60.729
95.930 4.800 85.316
95.940 4.670 74.269
95.950 4.640 66.386
95.960 4.770 70.026
95.970 4.830 56.298
96.000 5.060 41.759
96.040 5.420 32.103
96.050 4.880 46.505
96.060 4.590 18.806
96.070 5.090 40.601
96.080 5.340 68.580
96.090 4.990 18.476
96.100 4.550 53.024
96.110 4.220 71.840
96.120 4.220 33.320
96.130 4.550 33.884
96.140 4.580 40.327
96.150 5.120 46.023
96.160 4.580 84.572
96.170 4.280 62.946
96.180 4.630 60.249
96.200 4.060 63.168
96.210 4.460 76.853
96.220 5.360 38.373
96.230 4.970 54.703
96.240 5.790 26.601
96.250 5.880 57.936
96.260 4.720 62.841
96.270 4.300 69.815
96.310 4.470 70.480
96.320 5.090 72.858
96.330 4.880 47.383
96.340 4.640 40.436
96.350 4.090 56.727
96.370 4.850 53.640
96.380 4.890 77.695
96.410 5.120 88.000
96.450 4.860 88.494
96.460 5.520 88.113
96.470 5.180 89.528
96.480 4.890 66.954
96.490 4.850 73.347
96.510 5.680 74.577
96.520 5.600 88.112
96.530 5.900 78.506
96.540 5.860 83.846
96.640 5.680 86.220
96.860 5.580 86.234
96.900 5.900 47.609
96.930 5.610 88.448
98.180 5.820 79.692
98.210 5.650 61.787
98.250 5.820 87.452
98.270 5.920 89.389
98.290 5.830 86.647
98.490 5.460 82.854
98.700 5.840 67.834
98.710 5.950 89.773
98.750 5.910 77.243
98.910 5.880 84.997
98.990 5.450 86.862
99.000 5.720 88.034
99.160 5.720 87.233
99.540 5.900 76.762
99.550 5.650 88.915
99.560 5.950 57.956
99.570 5.260 78.414
99.590 5.680 62.071
99.610 5.930 72.344
99.630 5.850 54.884
99.640 5.520 78.339
99.660 5.530 85.850
99.670 5.610 77.969
99.680 5.930 81.008
99.750 5.990 24.060
99.770 5.650 31.713
99.780 5.420 32.876
99.950 5.990 17.437
99.960 5.920 30.897
100.130 5.870 27.592
100.140 5.960 36.195
100.170 5.590 31.064
100.190 5.920 20.629
100.250 5.900 22.518
100.720 5.750 22.713
100.780 5.910 19.245
101.130 5.950 68.881
101.150 5.470 42.281
101.160 5.220 59.564
101.200 5.610 72.459
101.230 5.710 82.749
101.250 5.300 59.113
101.260 5.280 72.820
101.330 5.980 84.797
101.370 5.470 89.986
101.380 5.740 84.051
101.410 5.680 85.247
101.460 5.820 79.402
101.510 5.460 80.729
101.550 5.930 78.184
101.800 5.940 70.157
101.890 5.890 60.504
101.920 5.550 50.061
102.010 5.630 50.790
102.060 5.590 85.701
102.110 5.970 24.285
102.140 5.940 76.975
106.410 5.710 53.016
106.420 5.790 27.727
106.430 5.300 1.722
106.440 4.800 41.644
106.450 5.350 53.417
106.460 4.130 47.335
106.470 5.760 42.326
106.480 5.910 37.590
106.490 5.910 82.114
106.520 5.910 67.970
106.560 5.780 37.825
106.660 5.220 21.741
106.670 5.740 27.583
106.680 5.930 63.464
106.700 5.820 67.966
106.810 5.670 65.487
107.870 5.490 84.790
109.090 5.780 76.717
109.100 5.760 89.520
109.110 5.810 66.599
109.130 5.870 77.070
109.950 5.550 60.472
109.990 5.810 17.617
110.010 5.330 89.401
116.410 5.730 26.488
116.420 5.700 23.004
116.560 5.840 8.577
117.060 5.780 12.356
117.070 5.810 14.796
117.090 5.900 13.239
117.860 5.740 79.269
117.920 5.870 84.306
118.090 5.940 81.358
118.140 6.000 60.951
118.150 5.420 61.628
118.170 5.760 67.736
118.180 5.950 69.446
118.190 5.170 83.163
118.220 5.970 79.187
118.230 5.190 77.394
118.240 4.700 83.032
118.280 5.550 68.795
118.290 5.460 52.305
118.320 5.360 81.366
118.340 4.770 74.886
118.360 5.740 75.242
118.370 5.180 81.976
118.380 5.500 67.444
118.400 5.200 77.788
118.410 4.990 86.498
118.420 4.730 85.792
118.450 4.680 19.507
118.460 5.370 81.114
118.580 5.440 88.160
118.650 5.030 51.467
118.660 5.170 73.881
118.970 5.040 60.526
118.980 4.880 54.150
118.990 4.830 66.819
119.000 4.630 58.325
119.010 5.440 40.981
119.020 5.470 68.017
119.030 5.230 57.667
119.040 5.450 51.294
119.050 5.300 77.641
119.060 5.370 40.777
119.070 6.000 83.639
119.300 5.430 81.263
119.400 5.850 34.193
119.410 5.750 52.566
119.420 5.850 46.885
119.440 5.710 72.264
119.580 5.670 73.012
119.660 4.940 89.917
119.690 4.790 84.031
119.700 5.040 66.756
119.740 5.000 83.815
119.840 5.660 71.221
119.850 5.170 67.575
119.860 5.770 81.968
119.940 5.910 71.876
119.950 5.270 73.274
119.970 5.020 77.585
119.990 5.860 24.896
120.350 4.200 88.698
120.410 5.720 74.264
120.720 5.740 89.394
120.730 5.950 83.052
120.740 5.100 67.566
120.750 5.270 70.066
120.910 4.650 89.495
120.940 5.350 47.328
121.250 5.830 51.282
121.500 4.440 77.847
121.520 5.000 81.557
121.550 4.590 66.259
121.560 4.810 87.405
121.570 5.150 77.005
121.630 5.990 82.915
121.670 5.380 87.964
121.690 4.960 87.423
121.750 5.100 84.889
121.760 4.900 83.787
121.840 5.130 78.353
121.870 4.820 79.477
121.910 4.230 63.789
121.920 4.300 79.245
121.930 4.880 79.626
121.940 5.440 40.349
121.990 4.690 75.193
122.600 5.330 88.456
122.630 5.410 83.297
122.640 5.640 62.677
122.690 5.590 88.843
122.760 5.920 63.621
122.790 5.590 86.034
122.870 4.550 82.948
122.880 4.480 82.287
122.900 5.530 82.236
122.910 4.760 79.209
122.930 4.730 67.968
122.940 5.130 83.672
122.970 5.650 80.076
122.980 5.400 77.939
123.100 5.850 85.674
123.550 5.730 60.823
123.560 5.860 76.220
124.260 5.890 82.795
124.440 5.180 63.541
124.640 5.810 76.012
125.090 5.490 84.624
127.320 5.840 85.689
137.060 4.690 74.768
137.070 5.580 49.683
137.080 5.840 82.326
137.090 5.250 51.053
137.100 5.760 73.961
137.110 5.850 82.388
137.130 5.930 48.964
137.140 5.870 49.328
137.920 4.350 88.733
137.950 5.340 75.794
138.040 4.980 55.411
138.050 5.230 79.835
138.060 5.360 49.984
138.230 5.930 54.043
138.250 5.810 5.315
138.270 5.100 62.724
138.280 5.120 58.330
138.300 5.430 39.152
138.310 5.730 26.708
138.360 5.690 31.545
138.370 5.850 45.165
138.390 5.170 62.713
138.400 5.210 58.193
138.410 5.740 32.484
138.420 5.290 52.560
138.430 5.490 53.401
138.440 5.850 44.311
138.450 4.840 49.970
138.460 5.080 39.973
138.470 5.260 45.485
138.480 5.990 10.277
138.500 5.560 33.758
138.510 4.890 37.449
138.520 5.880 59.529
138.530 4.610 77.293
138.550 5.850 47.317
138.580 5.870 20.993
138.590 6.000 20.658
138.600 5.890 23.456
138.640 5.760 50.432
138.650 5.910 60.734
138.660 4.990 73.801
138.680 5.760 37.290
138.700 5.580 74.305
138.710 5.520 53.490
138.720 5.960 20.757
138.740 5.530 37.983
138.750 5.490 30.950
138.770 5.750 40.064
138.800 5.770 17.566
138.910 5.820 81.556
139.220 5.460 85.034
139.230 5.460 80.641
139.540 4.820 79.335
139.610 4.750 89.363
140.070 5.640 88.752
140.100 5.890 73.854
140.140 5.800 10.966
140.150 5.920 40.867
140.330 4.550 63.187
140.340 4.970 81.987
140.370 5.600 37.744
140.380 5.420 25.731
140.410 5.690 26.990
140.470 5.190 83.040
140.480 5.250 84.601
140.490 5.390 36.459
140.500 5.650 79.481
140.840 5.790 54.145
140.850 5.760 45.170
140.900 5.020 82.114
140.980 4.720 69.662
141.020 4.660 83.358
141.050 5.090 74.124
141.060 4.120 75.220
141.110 4.840 60.738
141.190 4.770 47.226
141.240 5.270 80.769
141.280 5.140 79.543
141.300 5.610 81.102
141.330 5.090 79.874
142.330 3.950 87.281
142.370 4.670 69.303
142.380 3.980 89.865
142.390 4.700 85.403
142.410 5.780 80.602
142.420 5.640 88.172
142.470 4.180 86.366
142.480 3.800 76.841
142.520 4.610 86.796
142.580 5.190 87.927
142.860 5.810 44.165
142.870 5.460 29.278
142.910 5.640 46.501
142.930 4.920 74.477
143.140 4.570 80.059
143.460 3.710 88.334
143.520 4.300 81.527
143.560 5.360 71.112
143.570 5.190 81.161
143.770 5.860 36.660
143.790 5.840 37.652
143.800 5.760 29.705
143.820 5.710 46.975
143.830 5.970 89.497
143.840 5.680 66.920
143.850 5.430 58.338
143.880 5.870 61.423
145.460 4.800 73.665
145.470 5.140 47.136
145.480 5.420 56.537
145.500 5.680 39.230
145.520 5.360 65.448
145.530 4.450 72.360
145.540 5.090 84.727
145.580 5.650 51.583
145.590 5.940 72.404
145.610 5.890 22.411
145.640 6.000 18.575
146.390 5.640 87.198
146.430 5.670 82.196
146.590 4.970 67.045
146.610 5.450 76.346
146.690 4.800 79.454
146.700 5.640 72.791
146.710 5.400 81.064
147.250 6.000 23.390
149.620 5.930 67.385
149.630 5.570 25.697
149.640 5.490 65.572
149.650 6.000 37.396
149.670 5.930 80.650
149.680 4.320 72.435
149.700 5.420 32.924
149.710 5.640 46.756
160.690 6.000 79.932
174.630 5.830 42.203
174.640 5.630 52.022
175.100 5.670 56.702
175.120 5.900 33.411
175.130 5.880 50.360
175.210 5.960 50.719
180.730 4.410 89.193
181.540 5.800 85.630
182.130 5.770 72.557
182.160 5.640 81.004
182.170 5.770 77.444
182.180 5.950 74.494
182.210 5.910 87.088
182.220 5.840 86.277
182.550 5.190 85.323
182.560 5.470 78.624
186.900 5.980 58.248
219.580 5.630 45.294
219.590 5.730 70.223
219.600 5.920 73.160
219.630 4.840 62.189
219.650 5.850 87.967
219.660 5.750 86.501
224.120 5.700 81.833
224.800 5.320 40.026
224.810 5.180 42.734
224.820 4.850 33.534
224.830 5.660 34.428
224.840 5.480 79.781
224.850 5.340 59.587
224.860 4.330 66.110
224.870 5.000 45.449
224.890 4.330 84.486
224.910 4.340 86.649
225.000 5.960 89.332
225.100 4.410 76.757
225.250 4.500 57.076
225.280 4.660 70.249
225.290 5.990 51.611
225.310 5.330 36.238
225.320 5.440 45.215
225.330 5.360 85.390
225.340 5.750 88.190
225.350 5.430 84.134
225.360 5.180 78.229
225.390 4.740 82.371
225.400 5.960 76.822
225.410 5.940 69.289
225.420 5.630 30.958
225.430 5.570 18.148
225.440 5.200 58.487
225.450 5.760 71.806
225.460 4.770 70.690
225.470 5.300 56.603
225.520 5.350 89.119
225.570 4.940 85.260
225.610 4.380 72.449
225.640 5.850 84.413
225.760 5.330 81.682
225.790 5.940 84.365
225.800 5.800 79.561
225.820 5.440 67.324
225.850 5.840 85.635
225.860 5.340 66.829
225.890 5.780 85.693
225.990 4.800 77.712
226.010 4.880 89.446
226.210 5.020 89.534
226.250 5.240 66.301
226.270 4.960 79.700
226.290 5.150 88.509
226.350 5.230 78.959
226.360 5.340 73.627
226.380 5.210 75.788
226.400 4.410 88.995
226.410 5.160 59.318
226.420 5.810 76.940
226.440 5.130 61.995
226.450 5.730 46.938
226.470 5.220 82.027
226.480 4.600 45.907
226.500 5.310 63.737
226.510 5.550 69.755
226.540 5.000 33.238
226.560 4.520 88.069
226.700 4.930 81.053
226.830 5.490 81.968
226.940 5.560 58.274
226.950 5.130 69.628
227.030 5.980 89.894
227.050 5.420 54.048
227.070 5.480 68.927
227.100 5.180 74.246
227.110 4.600 45.468
227.120 4.940 29.966
227.130 4.880 64.600
227.180 4.830 88.802
227.210 5.420 82.104
227.240 5.330 89.203
227.320 4.800 66.143
227.330 5.190 66.043
227.340 4.640 43.578
227.350 4.570 37.082
227.360 4.770 58.275
227.370 5.150 84.018
227.380 5.170 58.955
227.390 4.340 26.996
227.400 5.000 58.254
227.410 5.090 63.665
227.420 5.580 66.892
227.430 5.030 25.101
227.440 5.160 47.658
227.470 5.560 53.678
227.480 5.990 78.000
227.490 5.080 26.526
227.510 5.400 40.334
227.530 5.920 86.762
227.540 5.750 75.634
227.550 5.890 89.548
227.560 5.870 89.336
227.580 5.630 38.130
227.590 5.360 54.609
227.600 5.590 71.783
227.610 5.500 68.137
227.620 5.560 81.112
227.630 5.590 76.198
227.640 5.210 28.884
227.670 5.910 73.619
227.700 5.770 15.431
227.710 5.270 22.207
227.760 5.690 32.488
227.770 5.740 62.149
227.790 5.950 82.912
227.850 5.650 18.867
227.860 5.920 61.760
227.890 5.950 42.794
227.900 5.880 37.196
227.920 5.720 51.953
228.020 5.570 29.367
228.040 5.650 49.754
228.060 5.530 47.923
228.160 5.970 61.303
228.170 5.490 12.327
228.190 5.290 58.563
228.220 5.950 28.998
228.280 5.500 47.652
228.310 5.880 41.301
228.330 5.950 82.703
228.360 5.290 64.192
228.380 5.550 49.253
228.390 5.330 53.728
228.420 5.100 64.578
228.440 5.960 72.238
228.450 5.440 41.866
228.460 5.690 83.766
228.470 5.860 47.145
228.480 4.700 40.948
228.490 5.980 75.882
228.500 5.220 37.226
228.510 5.560 71.499
228.520 5.450 38.724
228.530 5.370 51.549
228.560 5.930 75.212
228.600 5.500 76.133
228.820 5.490 86.141
228.830 4.860 89.125
228.840 5.230 85.681
228.980 4.350 64.779
228.990 4.970 78.238
230.090 5.290 56.858
230.380 5.800 37.323
230.390 5.930 52.630
230.400 5.520 54.968
230.410 5.340 59.512
230.420 5.660 71.246
230.430 5.420 55.043
230.440 5.590 35.461
230.470 5.810 80.099
230.510 5.870 50.087
230.520 5.960 62.058
230.530 5.900 70.591
230.540 5.710 76.058
230.550 5.750 69.842
230.560 5.650 73.209
230.610 5.850 57.390
230.620 5.060 60.165
230.630 4.940 35.978
230.650 5.220 43.284
230.660 4.920 37.594
230.670 5.400 41.358
230.680 5.550 23.616
230.700 5.410 24.402
230.760 5.880 70.884
230.780 5.240 21.263
230.800 5.480 80.187
230.820 5.700 89.217
230.830 5.170 79.554
230.840 5.920 67.097
230.850 5.970 73.657
230.940 5.880 89.136
230.960 5.530 54.877
230.970 4.930 69.500
230.980 5.590 82.246
231.010 5.710 49.096
231.020 5.810 83.916
231.030 5.820 52.742
231.040 5.300 81.545
231.050 5.350 63.451
231.090 5.370 46.768
231.110 5.960 61.445
231.120 5.430 56.999
231.180 5.820 85.241
231.270 5.900 50.534
231.280 5.760 53.842
231.290 5.850 45.622
231.300 5.810 86.644
231.310 5.740 58.632
231.320 5.990 54.439
231.330 5.670 59.859
231.350 5.710 57.270
231.370 5.650 33.001
231.380 5.270 49.503
231.410 5.590 20.130
231.430 5.950 87.554
231.440 5.710 83.232
231.450 5.450 50.920
231.460 5.110 30.127
231.470 5.620 46.107
231.500 5.770 76.794
231.510 5.390 84.481
231.530 5.780 64.756
231.540 5.750 48.001
231.560 5.110 59.718
231.570 5.870 79.041
231.590 4.910 46.628
231.600 5.510 71.704
231.610 5.210 68.050
231.620 5.670 30.760
231.670 5.300 15.779
232.050 5.570 68.719
232.170 5.750 79.460
232.240 4.870 86.638
232.340 4.950 64.369
232.350 4.910 78.819
232.360 4.500 70.748
232.390 5.500 71.782
232.490 5.870 72.608
232.520 5.570 89.219
232.550 5.260 60.043
232.560 5.470 67.972
232.570 5.090 81.371
232.580 5.960 72.037
232.590 5.890 87.049
232.620 5.210 81.335
232.630 5.850 76.282
232.710 5.920 76.654
232.720 5.650 78.117
232.730 5.590 73.943
232.740 5.960 26.860
232.750 5.540 75.975
232.760 5.440 69.133
232.770 5.420 73.807
232.790 5.530 73.308
232.810 5.890 59.084
232.820 5.620 52.676
232.840 5.980 46.405
232.910 5.750 28.157
232.920 5.990 27.154
232.980 5.810 38.703
232.990 5.990 37.811
233.000 5.300 32.020
233.010 5.710 62.936
233.020 5.520 65.411
233.080 5.840 59.685
233.090 5.080 42.772
233.100 5.880 66.555
233.110 5.820 79.199
233.120 5.820 71.794
233.230 5.790 48.191
233.240 5.690 51.387
233.350 5.990 82.710
233.460 5.890 67.507
233.470 5.560 75.863
233.550 4.940 76.870
233.590 5.060 26.335
233.630 5.090 24.033
233.660 5.090 62.681
233.680 4.450 83.095
233.710 4.930 40.538
233.720 5.190 86.912
233.760 5.530 86.388
233.770 5.410 55.391
233.780 5.480 84.232
233.790 4.590 46.206
233.810 5.200 75.316
233.820 4.400 82.744
233.830 5.430 89.049
233.920 3.960 80.984
233.960 5.190 70.791
233.970 4.700 67.816
233.980 5.600 58.647
233.990 5.530 67.637
234.030 5.280 88.923
234.050 5.620 78.573
234.070 5.540 77.825
234.090 5.090 80.502
234.100 5.410 85.924
234.130 5.620 28.131
234.140 5.890 47.306
235.140 5.490 61.857
235.150 6.000 52.868
235.180 5.210 77.722
235.890 5.510 77.825
235.900 5.670 62.188
235.910 5.650 75.727
235.940 5.390 76.170
235.960 5.780 74.915
236.090 5.940 77.319
236.150 4.760 88.234
237.790 5.910 77.935
237.800 5.250 61.637
238.100 5.670 79.721
238.110 5.470 50.521
238.120 5.520 78.859
238.130 5.870 75.475
238.330 5.860 46.113
238.340 5.450 52.011
240.110 4.920 17.885
240.160 5.690 52.639
240.170 5.600 42.231
240.180 5.170 8.782
240.190 5.040 13.999
240.200 5.230 53.899
240.210 5.160 31.755
240.220 5.150 43.695
240.270 5.860 52.953
240.340 5.890 58.848
240.830 5.490 70.976
240.840 5.760 37.075
240.850 4.990 60.029
240.860 5.190 48.493
240.870 5.370 60.343
240.880 5.320 43.996
240.890 5.530 65.858
240.900 5.270 67.961
240.910 5.050 52.894
240.920 5.320 47.359
240.930 5.440 53.596
240.940 5.390 40.565
240.950 5.160 49.304
240.960 5.840 52.629
240.970 4.860 64.520
240.980 5.360 76.299
241.000 5.190 28.663
241.010 4.540 22.595
241.020 5.270 49.168
241.030 5.490 47.543
241.040 5.020 43.432
241.050 5.550 39.069
241.060 5.180 35.780
241.070 5.260 63.168
241.080 5.480 62.886
241.090 5.170 45.459
241.100 5.800 36.312
241.110 5.560 53.910
241.120 5.300 31.904
241.130 4.880 36.033
241.140 4.740 47.849
241.150 5.320 50.527
241.240 4.750 75.013
241.270 4.420 74.054
241.280 4.990 69.245
241.330 4.820 87.473
241.340 5.410 82.496
241.350 5.160 28.517
241.360 4.610 45.367
241.370 4.970 53.977
241.380 4.870 88.651
241.390 5.670 83.918
241.420 4.760 86.445
241.440 4.660 85.020
241.450 4.860 71.073
241.470 5.380 81.647
241.560 5.610 74.311
241.580 5.340 46.946
241.590 5.480 69.056
241.600 5.480 72.432
241.610 5.990 89.521
241.620 5.990 56.378
241.890 5.480 70.643
241.930 4.690 88.358
241.940 4.780 79.960
242.000 4.020 70.857
242.010 4.190 74.752
242.020 3.780 89.109
242.030 3.990 66.993
242.290 5.190 83.592
242.460 5.690 87.738
242.590 5.780 85.800
242.650 5.690 89.393
242.690 4.340 76.393
242.750 5.410 80.882
242.760 5.570 79.728
242.780 5.490 81.847
242.820 5.750 72.478
243.080 5.700 61.356
243.110 5.210 73.403
243.120 5.770 24.593
243.130 5.660 44.449
243.140 5.290 68.304
243.150 4.850 20.914
243.160 5.450 46.200
243.170 4.410 57.375
243.200 5.620 63.945
243.420 5.280 59.696
243.430 5.050 64.962
243.550 5.850 76.103
243.650 4.420 84.631
243.710 5.440 86.562
243.760 5.680 73.652
243.770 5.080 83.399
243.790 5.020 86.002
243.800 4.740 80.621
243.820 5.180 81.305
243.920 5.510 74.278
243.940 5.760 76.368
243.950 5.160 64.334
244.010 5.720 58.746
244.040 5.920 81.607
244.070 5.360 71.594
244.100 5.800 85.267
244.120 5.840 70.476
244.220 5.470 88.588
244.230 5.590 45.549
244.240 5.990 70.564
244.260 5.980 64.717
244.270 5.580 45.563
244.300 5.880 42.106
244.330 5.010 26.728
244.350 5.630 31.833
244.370 5.770 81.622
244.390 5.750 70.088
244.400 5.860 79.647
244.420 5.620 37.246
244.440 5.520 62.028
244.480 4.850 55.681
244.500 5.830 58.973
244.530 5.800 75.343
244.610 5.840 72.915
244.620 5.590 35.428
244.640 5.580 53.906
244.700 5.920 73.784
244.710 5.850 41.877
244.720 5.890 87.180
244.730 5.380 48.957
244.750 5.630 25.094
244.790 5.890 56.073
244.830 5.920 62.202
244.840 5.810 61.802
244.880 5.560 80.875
244.890 5.200 41.346
244.900 5.430 44.781
245.460 5.670 89.296
245.470 5.560 46.145
245.490 5.140 54.160
245.500 5.720 47.633
245.510 5.210 48.610
245.520 4.860 20.602
245.530 5.430 18.991
245.540 5.020 42.427
245.550 4.230 22.379
245.560 4.810 33.749
245.610 5.970 31.089
245.630 5.490 32.801
245.640 5.600 70.566
245.680 5.260 72.612
245.730 4.970 79.791
245.790 5.330 89.941
245.800 4.680 55.123
245.860 5.170 20.455
245.870 5.220 78.256
245.880 5.510 54.598
245.900 5.140 66.146
245.920 5.840 47.454
245.930 5.610 51.358
245.950 5.890 75.514
245.960 5.780 35.205
245.970 5.810 27.050
246.080 5.830 50.807
246.090 6.000 76.189
246.250 5.370 65.703
246.260 4.380 57.568
246.270 4.740 58.806
246.560 5.750 85.811
246.590 5.690 70.696
246.600 5.120 67.347
246.610 5.240 24.217
246.630 5.760 78.005
246.650 5.900 80.662
246.670 5.890 88.371
246.680 5.360 58.734
246.730 5.740 85.457
246.740 5.980 87.114
246.750 5.420 64.128
246.780 3.950 82.661
246.800 4.640 79.421
246.810 4.700 73.257
246.820 3.800 70.873
246.830 4.390 66.135
246.840 4.670 86.983
246.870 4.980 82.511
246.890 5.450 82.515
246.900 4.790 57.845
246.940 4.660 89.979
246.960 5.750 54.690
247.030 5.780 85.730
247.200 6.000 86.916
247.340 4.170 71.084
247.350 4.730 37.574
247.630 5.890 83.947
247.740 5.840 74.365
247.920 5.200 69.681
247.970 5.870 71.783
248.010 5.540 68.230
248.020 5.230 86.012
248.050 5.350 51.049
248.060 6.000 45.125
248.070 5.820 65.375
248.090 5.760 79.640
248.100 5.810 78.880
248.110 5.540 22.826
248.120 5.580 81.818
248.130 5.200 51.843
248.140 5.380 77.587
248.150 5.050 50.287
248.160 4.900 60.558
248.190 5.840 78.988
248.260 5.830 72.030
248.290 4.320 37.917
248.300 5.230 27.769
248.310 5.100 31.759
248.320 5.730 89.629
248.330 4.470 54.131
248.340 5.460 44.194
248.350 5.550 67.582
248.360 5.510 47.744
248.370 5.930 76.040
248.380 5.600 37.763
248.400 5.720 79.266
248.410 6.000 35.001
248.420 5.790 59.694
248.430 5.660 54.462
248.460 5.800 66.361
248.470 5.530 81.675
248.480 5.350 78.483
248.600 5.920 82.259
248.670 5.950 83.071
248.680 6.000 70.780
248.910 5.760 86.072
248.930 4.940 42.912
248.940 5.020 47.021
248.950 4.990 51.915
248.960 5.190 47.089
248.970 4.870 40.125
248.980 4.200 47.522
248.990 5.300 32.693
249.000 5.280 17.162
249.010 4.520 54.274
249.020 4.910 49.478
249.030 4.970 26.637
249.040 5.080 61.731
249.050 5.350 57.380
249.060 5.250 69.999
249.070 4.560 34.830
249.080 5.710 44.430
249.090 4.750 40.336
249.100 5.130 66.552
249.110 4.830 68.844
249.120 5.270 47.014
249.130 4.630 49.613
249.140 5.100 89.708
249.150 4.820 44.067
249.160 4.840 33.829
249.170 5.240 73.565
249.180 4.540 46.787
249.190 5.080 67.660
249.250 5.980 88.936
249.400 5.700 86.167
249.470 4.670 89.756
249.550 5.030 88.503
249.590 5.280 78.892
249.600 5.420 89.348
249.900 5.560 81.819
249.970 5.490 87.968
250.120 4.840 83.428
250.140 5.660 89.370
251.700 5.990 85.523
251.730 5.840 55.042
251.740 5.800 46.732
251.760 5.990 24.977
251.830 5.890 70.439
251.850 5.400 60.008
251.860 5.360 44.056
251.880 5.950 78.920
251.920 5.890 74.867
251.960 5.910 30.382
251.970 5.640 56.285
251.980 5.380 33.808
251.990 5.660 44.999
252.000 5.740 78.603
252.020 5.890 69.031
252.030 5.530 80.753
252.040 5.720 38.459
252.050 5.990 59.487
252.120 5.520 36.570
252.180 5.960 29.047
252.200 5.950 32.205
252.230 5.320 31.532
252.240 5.580 49.758
252.250 4.920 38.728
252.260 5.430 61.863
252.270 5.940 56.528
252.300 5.460 58.618
252.310 5.240 47.044
252.320 5.670 7.922
252.350 6.000 46.684
252.370 5.970 79.622
252.380 5.930 68.003
252.390 5.650 70.665
252.400 5.170 74.087
252.410 5.520 42.207
252.420 5.940 33.887
252.450 5.690 19.800
252.470 5.880 52.415
252.480 5.700 48.992
252.490 5.460 42.305
252.500 5.660 60.834
252.510 5.610 60.308
252.520 5.510 79.122
252.530 4.700 37.732
252.560 5.930 75.261
252.580 5.960 85.841
252.650 5.720 41.769
252.690 5.390 66.790
252.700 5.770 67.531
252.730 5.990 57.553
252.750 5.900 34.520
252.770 5.820 63.862
252.780 5.650 53.465
252.790 5.700 63.861
252.800 5.820 85.995
252.810 5.820 39.836
252.870 5.180 56.523
252.900 5.880 71.305
252.930 5.890 64.800
252.950 5.720 35.180
252.960 5.960 24.360
252.990 5.740 64.618
253.000 5.880 55.091
253.080 5.840 58.924
253.090 5.870 67.985
253.140 5.920 38.350
253.200 5.500 37.689
253.210 5.820 50.836
253.220 5.930 61.680
253.260 5.760 42.502
253.290 5.980 47.709
253.370 5.720 24.720
253.400 5.270 56.831
253.410 5.840 47.371
253.420 5.820 35.628
253.460 5.840 37.277
253.590 5.370 70.275
253.600 5.560 71.445
253.620 5.470 40.076
253.630 5.850 79.244
253.650 5.800 66.835
253.660 5.810 60.391
253.690 5.600 30.357
253.700 5.860 67.113
253.710 5.920 55.308
253.720 5.210 66.516
253.730 5.780 36.557
253.740 5.970 49.785
253.760 5.820 40.001
253.810 5.820 50.058
253.870 6.000 45.215
253.880 5.260 76.800
253.900 5.490 61.275
253.910 5.310 44.123
253.990 5.920 42.722
254.110 5.780 15.420
254.140 5.430 17.542
254.150 5.850 48.172
254.180 5.910 9.632
254.230 5.450 44.072
254.240 4.810 67.210
254.250 5.530 82.049
254.270 5.710 51.869
254.300 5.240 38.794
254.310 5.760 60.599
254.330 5.940 58.466
254.420 5.210 68.516
254.430 5.680 42.363
254.460 5.640 60.118
254.490 4.910 81.590
254.500 5.020 89.311
254.520 5.700 48.914
254.530 4.970 65.050
254.540 4.390 46.988
254.550 5.640 57.556
254.570 5.290 52.832
254.580 5.030 37.337
254.590 5.620 60.021
254.600 4.340 30.650
254.610 5.310 22.879
254.630 4.610 58.877
254.640 4.860 88.139
254.680 4.310 79.617
254.760 4.330 66.854
254.790 5.120 85.334
254.800 5.110 63.512
254.810 5.250 84.919
254.840 5.190 69.381
254.850 5.190 49.941
254.930 4.700 47.264
254.970 5.010 78.271
255.020 4.650 54.068
255.040 5.440 65.132
255.160 5.800 52.674
255.210 5.520 72.449
255.220 5.850 30.775
255.230 5.170 89.858
255.240 5.360 57.336
255.250 5.470 74.350
255.260 5.120 84.601
255.270 5.150 71.076
255.280 5.770 61.097
255.330 5.470 48.353
255.340 5.730 61.831
255.350 5.130 75.516
255.360 5.620 58.630
255.370 4.990 63.598
255.380 5.420 84.069
255.400 5.250 72.047
255.410 5.840 69.250
255.440 5.390 57.177
255.450 5.730 83.618
255.500 5.590 49.287
255.510 5.170 35.575
255.550 5.590 25.609
257.460 4.990 89.276
257.820 4.650 88.390
258.000 5.990 85.254
258.180 5.950 87.027
258.440 5.880 80.905
258.620 5.040 69.536
258.630 4.960 81.917
258.710 4.370 80.238
258.720 4.860 35.268
258.740 4.540 82.726
258.770 4.780 79.601
258.780 4.900 71.427
258.790 4.490 74.691
258.800 4.990 71.059
258.830 5.680 72.042
258.870 4.740 81.244
258.880 6.000 55.408
258.910 4.410 54.933
258.920 4.570 60.076
258.990 5.390 65.469
259.000 5.520 86.890
259.010 4.670 33.815
259.020 4.460 53.602
259.030 5.670 34.229
259.040 5.400 40.313
259.060 5.610 62.250
259.070 5.080 49.503
259.080 4.120 72.829
259.110 5.270 79.725
259.120 5.810 65.440
259.130 4.570 83.207
259.140 5.200 65.916
259.150 5.840 71.248
259.170 5.800 68.784
259.200 5.760 56.205
259.220 4.350 58.240
259.230 4.700 60.221
259.240 4.360 56.670
259.250 4.570 51.499
259.260 4.730 84.339
259.270 4.400 62.049
259.310 4.390 63.063
259.330 4.060 89.586
259.350 5.220 50.829
259.360 4.430 75.115
259.370 4.540 79.802
259.380 4.130 53.212
259.390 4.660 26.503
259.400 5.090 72.291
259.410 5.940 69.369
259.450 5.090 78.226
259.460 5.610 64.700
259.470 5.480 68.599
259.480 5.000 83.755
259.500 5.770 52.755
259.510 5.830 83.008
259.530 5.220 64.293
259.590 5.360 87.589
259.600 5.830 42.377
259.610 5.710 62.565
259.650 5.720 58.520
259.660 5.800 63.424
259.680 5.890 87.717
259.720 5.300 49.576
259.840 5.520 85.094
259.860 5.820 78.662
260.070 5.500 22.764
260.080 5.740 33.329
260.100 5.980 51.060
260.200 5.640 81.042
260.410 5.620 76.532
260.920 5.810 53.718
260.940 5.380 22.126
260.970 5.710 68.662
260.980 5.270 41.168
261.460 5.910 29.216
261.470 5.940 22.106
261.480 5.670 22.057
261.500 5.750 25.646
261.510 5.450 40.442
261.520 5.680 85.500
261.530 5.230 43.103
261.610 4.930 89.047
261.620 5.190 76.895
261.630 4.550 69.439
261.720 4.140 81.456
261.730 4.810 63.174
261.740 4.120 38.073
261.750 5.080 68.124
261.770 5.020 76.975
261.780 3.940 72.716
261.810 5.380 65.235
261.840 5.440 62.415
261.850 5.500 69.043
261.880 5.290 40.320
261.900 5.070 27.859
261.910 5.210 32.678
261.920 5.320 57.388
261.930 5.260 83.081
261.940 5.180 67.228
261.950 5.160 50.244
261.960 5.120 29.737
261.970 5.390 22.194
261.980 5.210 75.053
261.990 4.790 45.333
262.000 5.010 52.267
262.040 5.800 63.680
262.050 5.820 68.882
262.080 5.920 5.035
262.100 5.590 70.775
262.150 5.220 88.793
262.160 5.790 84.925
262.220 4.760 76.117
262.230 5.710 89.769
262.250 4.880 54.820
262.260 4.940 46.485
262.270 4.470 28.714
262.280 5.470 35.461
262.550 4.450 79.110
262.580 4.380 88.086
262.590 4.460 72.431
262.600 5.050 73.208
262.730 4.380 76.729
262.740 4.990 86.335
262.750 4.540 53.538
262.760 5.450 89.213
262.780 4.940 11.549
262.790 4.750 60.289
262.800 5.270 64.982
262.810 5.590 66.397
262.830 4.240 61.662
262.840 4.840 81.131
262.860 5.160 64.599
262.920 4.350 74.326
262.930 5.080 73.736
262.960 3.960 72.845
262.990 4.750 89.290
263.030 4.890 80.384
263.050 4.360 72.426
263.060 4.660 77.921
263.070 4.450 85.754
263.080 4.670 66.904
263.100 5.220 72.946
263.130 4.330 66.615
263.140 5.340 75.786
263.220 5.210 76.070
263.230 6.000 67.005
263.270 5.740 83.357
263.360 5.080 55.886
263.370 5.170 75.989
263.380 5.220 74.113
263.390 4.560 86.759
263.400 4.820 89.321
263.420 4.730 85.891
263.440 4.690 89.536
263.450 4.900 82.135
263.460 5.800 87.952
263.470 5.080 85.059
263.480 5.230 58.725
263.490 5.800 80.353
263.510 5.650 85.192
263.530 5.770 79.961
263.540 5.790 69.985
263.550 5.700 64.190
263.580 4.610 74.946
263.590 4.560 67.826
263.600 4.830 53.159
263.610 5.570 88.643
263.630 5.230 81.178
263.640 5.110 48.277
263.660 4.590 79.384
263.670 5.140 84.578
263.700 4.540 74.135
263.730 4.570 84.497
263.770 5.160 84.626
263.780 5.620 49.975
263.790 5.250 40.118
263.800 4.760 77.061
263.810 5.000 57.792
263.830 5.370 75.574
263.840 5.290 58.162
263.850 4.870 52.526
263.860 4.800 72.050
263.870 4.740 89.051
263.900 4.880 66.965
263.910 4.840 76.013
263.920 4.700 80.141
263.950 4.490 83.637
263.960 5.240 58.431
263.970 4.600 67.053
263.990 4.960 40.395
264.000 4.900 72.726
264.020 4.870 80.561
264.030 5.080 53.259
264.040 5.390 45.575
264.050 5.480 71.818
264.240 4.490 80.716
264.250 4.190 79.736
264.260 4.910 87.801
264.290 5.310 73.794
264.300 4.790 78.634
264.310 4.870 86.216
264.340 5.370 81.894
264.460 5.160 83.259
264.950 5.350 76.545
264.960 5.000 81.122
264.970 5.470 74.741
264.990 5.050 62.857
265.000 5.260 78.320
265.020 4.780 74.490
265.060 5.590 88.537
265.070 5.140 41.927
265.080 5.590 60.935
265.090 5.700 65.387
265.100 5.670 80.052
265.140 5.530 76.319
265.150 5.620 80.629
265.220 4.940 77.794
265.240 5.850 76.754
265.260 5.680 81.330
265.270 5.690 76.800
265.280 5.750 81.746
265.290 5.560 51.950
265.310 5.550 72.593
265.330 4.760 50.940
265.340 5.200 89.007
265.350 5.730 56.838
265.380 5.080 80.140
265.410 5.280 74.519
265.420 5.030 56.517
265.430 5.400 59.147
265.440 5.530 79.383
265.450 5.340 88.942
265.470 5.620 48.024
265.480 5.500 88.851
265.500 4.680 70.711
265.510 4.840 69.513
265.520 4.520 81.759
265.530 5.940 42.884
265.540 5.600 49.885
265.550 5.200 53.694
265.630 5.180 63.283
265.640 5.750 50.787
265.650 5.090 49.659
265.660 5.490 81.471
265.670 4.890 71.070
265.690 5.620 41.267
265.700 5.510 61.365
265.750 5.150 76.899
265.760 5.350 29.914
265.770 5.090 85.550
265.780 5.420 88.575
265.790 5.110 72.410
265.800 4.970 63.668
265.810 4.980 66.583
265.840 4.810 45.689
265.870 5.020 73.248
265.890 4.850 60.951
265.900 5.420 52.014
265.910 5.410 52.444
265.920 5.120 64.449
265.930 5.400 46.678
265.940 5.160 51.257
265.950 5.110 53.079
265.960 5.390 80.067
265.970 4.990 80.878
265.980 5.210 63.873
265.990 5.800 74.446
266.000 5.160 44.073
266.010 5.460 78.012
266.020 4.920 55.356
266.030 5.260 52.144
266.040 5.210 52.242
266.060 4.330 76.403
266.070 4.670 76.222
266.080 4.980 72.579
266.100 5.100 86.103
266.110 4.290 56.391
266.120 4.330 87.050
266.130 4.780 67.557
266.140 4.930 45.142
266.150 4.860 66.845
266.160 5.120 59.853
266.170 5.270 77.481
266.180 5.360 41.552
266.210 5.560 33.473
266.220 5.910 50.042
266.230 5.150 39.299
266.240 4.470 78.681
266.250 4.740 74.456
266.270 5.170 56.979
266.280 4.400 88.917
266.290 4.940 76.595
266.300 5.170 63.594
266.310 4.760 61.179
266.320 5.190 65.723
266.340 5.710 76.217
266.350 5.840 76.989
266.360 5.070 83.233
266.370 5.070 76.267
266.380 5.000 79.549
266.390 4.800 46.865
266.420 4.680 50.558
266.450 5.770 86.112
266.500 4.100 70.497
266.510 4.080 50.447
266.520 3.340 30.782
266.530 3.180 29.159
266.540 3.560 47.829
266.560 4.690 71.374
266.580 5.410 86.577
266.590 5.080 89.736
266.600 4.930 87.986
266.740 4.860 68.470
266.800 4.560 82.238
266.810 5.550 74.953
266.830 4.910 81.820
266.840 4.550 81.761
266.890 5.840 70.500
266.920 5.110 69.667
266.930 5.360 59.086
266.940 5.310 67.954
266.950 5.200 47.832
266.970 5.580 71.441
266.990 5.920 56.363
267.110 5.610 52.448
267.120 5.800 75.180
267.140 5.610 54.806
267.520 5.000 44.534
267.530 5.390 77.160
267.540 4.540 36.426
267.550 4.600 55.941
267.560 5.020 86.810
267.570 4.500 65.131
267.590 4.810 59.506
267.600 4.840 81.746
267.730 5.890 77.007
267.740 5.940 77.160
267.970 4.880 73.395
268.070 5.980 81.596
268.130 5.790 87.718
268.170 5.850 88.754
268.190 5.570 65.319
268.200 4.540 32.499
268.230 5.740 84.120
268.250 5.700 84.682
268.570 4.890 77.641
268.580 4.950 86.860
268.590 5.100 77.079
268.600 4.420 73.671
268.610 5.210 49.305
268.620 4.650 29.870
269.150 4.850 50.607
269.170 5.590 88.421
269.180 4.760 52.652
269.190 5.280 45.915
269.200 5.170 79.542
269.210 5.460 48.600
269.220 5.020 61.492
269.230 5.310 83.399
269.240 5.070 56.102
269.250 5.340 85.678
269.270 5.970 62.528
269.280 5.480 55.204
269.290 5.250 50.732
269.310 5.650 54.835
269.320 5.950 44.330
269.340 5.740 59.144
269.400 5.370 67.592
269.410 5.710 83.223
269.420 5.280 28.062
269.460 5.490 67.462
269.930 5.880 82.701
269.960 5.480 78.976
269.990 5.960 85.606
270.010 5.790 69.656
270.030 5.530 84.343
270.060 5.510 60.067
270.070 5.580 77.770
270.080 5.240 55.674
270.100 5.470 34.766
270.120 5.620 65.503
270.130 4.830 24.332
270.140 5.360 66.424
270.150 5.330 77.475
270.160 5.410 67.539
270.170 5.310 68.448
270.180 5.360 64.534
270.190 5.210 69.590
270.200 5.580 76.682
270.210 5.290 65.994
270.220 5.250 68.455
270.230 5.410 70.904
270.240 5.490 80.315
270.260 5.330 81.319
270.280 5.230 79.650
270.790 5.950 75.372
272.740 5.830 73.442
272.750 5.490 59.312
272.790 5.480 76.981
272.800 5.540 69.575
273.750 5.690 47.424
273.760 5.230 26.585
273.790 5.940 65.691
279.120 5.970 50.247
279.130 5.860 38.995
279.180 5.980 51.178
279.190 4.950 41.790
279.200 4.580 22.766
279.210 5.570 31.812
279.220 5.680 44.320
279.230 5.190 44.319
279.240 5.550 22.933
279.250 5.310 44.889
279.260 5.980 54.369
279.270 5.890 55.729
279.290 5.970 73.695
279.350 5.990 64.812
279.360 5.520 61.283
279.370 5.990 33.671
279.470 5.590 43.777
279.480 5.910 43.652
279.490 5.370 43.870
279.500 5.600 14.346
279.510 5.950 23.896
279.520 5.790 25.871
279.530 5.570 49.069
279.550 5.270 31.065
279.560 5.300 33.591
279.580 5.960 34.137
279.600 5.530 44.936
279.620 5.360 46.001
279.800 5.590 19.685
279.810 5.860 40.219
279.830 5.890 32.837
279.870 4.660 32.332
279.880 4.900 36.649
279.900 5.210 43.908
279.920 5.520 59.899
279.960 5.230 64.466
279.970 5.910 77.326
280.080 5.790 28.164
280.130 5.940 34.102
280.160 5.640 47.483
280.170 5.710 41.716
280.310 5.950 34.638
281.210 5.650 68.871
281.220 5.330 57.018
281.230 5.780 82.645
281.240 5.780 84.010
281.250 5.760 48.667
285.400 5.660 78.826
285.890 5.000 71.079
285.910 5.330 47.034
285.920 5.280 55.792
285.930 5.410 17.911
285.950 5.140 37.219
285.960 5.490 49.427
286.000 4.900 72.389
286.010 5.210 47.519
286.020 5.280 55.460
286.030 4.410 40.527
286.040 5.720 88.325
286.050 4.850 31.752
286.380 5.540 69.655
286.390 5.670 71.534
286.410 5.500 50.974
286.420 5.040 57.087
286.430 5.360 76.609
286.480 4.680 25.197
286.490 5.480 23.888
286.500 5.760 53.661
286.510 5.120 16.079
286.520 5.340 28.601
286.530 5.100 27.231
286.540 5.500 47.804
286.550 5.990 49.903
288.580 3.700 86.240
288.590 3.820 70.788
288.600 3.700 59.211
288.610 3.420 38.111
288.620 3.800 52.244
288.630 3.650 65.089
288.640 3.580 54.921
288.650 3.850 80.329
288.670 3.470 46.141
288.680 4.210 48.418
288.690 3.830 47.677
288.700 3.410 80.982
288.710 3.630 68.681
288.720 3.520 61.823
288.730 3.560 73.673
288.740 3.750 16.316
288.750 3.480 62.707
288.760 3.490 87.700
288.770 4.100 31.192
288.780 3.330 73.426
288.790 3.520 85.619
288.800 3.700 56.393
288.810 3.750 25.212
288.820 3.560 22.554
288.830 3.620 43.255
288.840 3.840 53.307
288.850 3.530 56.859
288.860 3.610 38.762
288.870 3.620 31.010
288.880 3.530 75.733
288.890 3.550 48.346
288.900 3.720 17.566
288.910 3.190 38.869
288.920 3.530 20.821
288.930 3.710 27.873
288.940 3.480 11.327
288.950 3.490 22.931
288.960 3.610 3.478
288.970 3.490 17.138
288.980 3.700 31.213
288.990 3.580 56.255
289.000 3.640 24.946
289.010 3.570 39.522
289.020 3.600 54.150
289.030 3.460 40.380
289.040 3.790 38.579
289.050 3.570 49.524
289.060 3.450 64.996
289.070 3.780 53.108
289.080 3.330 66.417
289.090 3.540 43.110
289.100 3.720 43.025
289.110 3.640 11.956
289.120 3.650 65.894
289.130 3.630 31.449
289.140 3.670 49.021
289.150 3.750 47.932
289.160 3.720 36.922
289.170 3.510 75.245
289.180 3.810 31.407
289.190 3.540 77.840
289.200 3.480 75.303
289.210 3.900 50.111
289.220 3.560 67.447
289.230 3.960 49.006
289.240 3.970 47.831
289.250 3.690 24.119
289.260 3.490 69.184
289.270 3.620 41.454
289.280 3.950 56.320
289.290 3.990 36.328
289.300 3.810 68.624
289.310 3.440 21.529
289.320 3.550 53.675
289.330 3.560 51.020
289.340 3.620 37.389
289.350 3.500 58.078
289.360 3.520 55.786
289.370 3.520 76.934
289.380 3.510 78.260
289.390 3.760 49.539
289.400 3.500 71.181
289.410 3.730 59.271
289.420 3.420 41.285
289.430 3.780 59.965
289.440 3.760 74.647
289.450 3.610 56.071
289.460 3.770 44.493
289.470 3.660 40.641
289.480 3.490 70.047
289.500 3.680 71.275
289.510 4.950 12.129
289.520 5.510 29.982
289.530 4.770 48.658
289.540 4.950 34.639
289.550 5.420 24.666
289.560 5.950 28.451
289.570 5.570 49.042
289.580 3.440 33.442
289.590 5.880 41.258
289.600 5.850 64.947
289.610 5.690 49.331
289.620 5.500 46.961
289.640 5.520 50.854
289.660 5.310 43.522
289.670 5.240 49.232
289.680 4.890 38.470
289.690 5.330 38.677
289.700 5.680 49.668
289.710 5.810 19.559
289.720 5.510 52.164
289.730 5.720 64.103
289.750 5.530 50.986
289.770 5.940 29.981
289.780 5.890 34.757
289.790 5.160 39.344
289.800 5.370 52.765
289.810 5.710 74.593
289.820 5.300 56.155
289.850 5.810 64.576
289.890 5.550 72.819
289.900 5.930 67.525
289.910 5.260 64.246
290.150 5.790 58.602
290.160 5.980 57.327
290.170 5.030 68.810
290.180 5.740 44.925
290.190 5.320 40.335
290.200 5.690 80.671
290.210 4.770 41.935
290.220 5.310 67.292
290.230 4.990 40.094
290.240 4.540 51.568
290.250 4.370 78.998
290.260 5.470 28.985
290.270 5.780 39.873
290.280 5.040 48.087
290.290 5.120 61.621
290.300 4.850 65.340
290.350 5.000 82.868
290.370 4.840 73.644
290.390 5.640 68.414
290.400 5.490 47.260
290.410 5.280 40.628
290.420 5.210 44.318
290.430 5.340 26.794
290.440 5.600 32.778
290.450 4.770 24.087
290.460 5.020 39.933
290.470 4.660 36.440
290.480 5.000 27.845
290.490 5.020 44.151
290.500 5.690 61.432
290.510 5.890 38.077
290.520 5.080 84.485
290.530 4.990 63.480
290.540 5.800 71.707
290.550 5.280 83.398
290.560 5.540 79.974
290.570 5.590 72.770
290.580 5.560 65.379
290.590 5.570 62.223
290.610 5.670 67.767
290.630 5.390 50.616
290.640 5.730 46.953
290.650 5.950 68.026
290.660 5.620 62.288
290.670 4.890 43.039
290.680 5.420 52.569
290.690 5.430 72.056
290.700 5.160 87.062
290.710 5.670 64.266
290.720 5.090 63.770
290.730 5.590 79.922
290.740 4.300 86.728
290.750 5.230 34.552
290.760 5.700 27.751
290.900 4.420 77.945
290.910 5.120 50.957
290.920 4.650 81.925
291.030 5.830 86.061
291.090 5.730 30.646
291.100 5.240 28.033
291.110 5.100 34.309
291.120 5.080 50.376
291.130 5.520 51.691
291.140 5.250 59.409
291.150 5.070 58.174
291.170 5.420 80.873
291.180 5.600 69.059
291.190 5.660 60.031
291.200 5.610 53.150
291.210 5.340 79.005
291.230 5.020 64.687
291.240 4.950 52.530
291.250 5.100 86.629
291.260 4.900 74.502
291.270 5.140 38.194
291.280 5.340 62.824
291.290 4.060 56.710
291.300 5.210 70.112
291.310 5.250 35.858
291.320 5.900 71.672
291.330 4.860 77.358
291.350 5.420 82.132
291.360 5.440 89.439
291.400 4.750 54.617
291.410 4.950 81.410
291.420 4.550 76.875
291.430 5.780 83.352
291.480 5.100 56.877
291.490 5.220 60.998
291.500 5.530 41.343
291.510 5.230 56.000
291.520 4.830 88.582
291.530 4.690 78.248
291.540 5.090 60.113
291.550 5.130 49.602
291.560 4.900 60.555
291.570 5.360 51.267
291.580 5.050 36.006
291.590 3.700 66.525
291.600 3.540 45.739
291.610 3.480 58.511
291.620 3.550 50.635
291.630 3.920 58.502
291.640 3.820 46.016
291.650 3.800 49.382
291.660 3.530 51.564
291.670 3.460 63.080
291.680 4.100 44.860
291.690 3.630 55.515
291.700 3.370 49.567
291.710 3.800 47.732
291.720 3.620 23.448
291.740 5.590 84.094
291.750 5.150 59.596
291.770 5.270 87.695
291.780 5.400 72.686
291.790 3.730 31.179
291.800 3.810 51.922
291.810 3.090 28.848
291.820 3.370 39.164
291.830 3.850 46.355
291.840 3.690 37.010
291.850 3.890 40.878
291.860 4.000 29.785
291.870 3.480 29.354
291.880 3.620 58.021
291.890 3.720 48.898
291.900 4.920 86.407
291.940 5.390 77.002
291.960 5.950 50.112
291.990 4.490 58.612
292.000 5.190 87.742
292.010 4.580 84.628
292.020 5.410 72.873
292.030 5.300 22.878
292.040 4.540 3.876
292.050 5.140 3.423
292.060 5.160 30.671
292.070 5.530 54.737
292.080 4.280 59.035
292.090 4.940 44.989
292.100 4.800 77.224
292.120 5.060 77.052
292.130 5.280 70.113
292.140 5.140 69.985
292.150 4.740 85.784
292.160 4.630 63.129
292.200 5.770 77.337
292.210 4.540 57.674
292.240 4.740 55.845
292.250 4.740 87.230
292.260 4.920 43.057
292.270 5.340 63.706
292.290 4.870 42.878
292.310 4.590 86.168
292.320 5.130 65.707
292.330 5.390 80.329
292.390 4.770 87.722
292.400 4.800 66.289
292.410 5.330 84.343
292.420 4.810 72.696
292.430 5.690 63.976
292.480 4.900 71.659
292.490 5.500 61.660
292.500 4.860 62.309
292.510 5.100 65.270
292.520 5.150 63.807
292.530 5.240 32.307
292.540 5.350 68.581
292.550 4.610 69.983
292.560 5.080 46.180
292.570 5.370 81.995
292.580 4.940 53.040
292.600 5.490 59.638
292.610 5.350 85.251
292.640 4.490 69.082
292.650 5.140 65.335
292.660 5.290 79.414
292.670 5.570 65.233
292.680 5.090 33.947
292.690 4.300 59.173
292.700 5.760 57.109
292.710 4.830 65.435
292.720 5.420 45.853
292.730 5.330 39.963
292.740 5.210 58.191
292.750 5.550 61.472
292.760 5.490 79.799
292.770 5.140 69.193
292.780 4.900 72.689
292.790 5.860 57.479
292.810 4.980 81.345
292.820 5.190 70.103
292.830 5.180 88.224
292.850 4.670 46.329
292.860 5.450 49.368
292.870 5.260 63.448
292.880 5.970 67.145
292.890 5.650 60.734
292.900 5.790 60.897
292.910 5.470 35.235
292.920 6.000 63.062
292.930 5.430 77.811
292.940 5.260 85.521
292.950 5.810 89.324
292.970 5.610 80.883
292.980 5.450 86.325
292.990 5.670 87.051
293.000 5.060 71.563
293.010 5.840 67.133
293.020 5.160 65.875
293.030 5.630 62.222
293.040 5.550 54.393
293.050 5.730 74.674
293.070 5.380 82.771
293.080 5.640 66.108
293.090 5.300 41.523
293.100 5.280 60.885
293.110 4.910 46.447
293.120 4.970 32.105
293.130 5.430 78.966
293.140 5.320 65.990
293.150 5.370 74.734
293.160 4.620 69.930
293.170 5.350 50.933
293.180 5.460 82.813
293.190 5.460 75.527
293.200 5.840 87.862
293.210 5.630 67.360
293.220 5.140 41.156
293.230 5.660 62.447
293.240 4.910 84.168
293.270 4.760 87.217
293.280 5.790 57.228
293.290 5.000 71.929
293.300 5.450 80.726
293.310 5.650 80.200
293.320 5.680 79.471
293.330 5.480 81.297
293.340 5.470 76.116
293.350 5.610 58.892
293.360 4.910 54.114
293.370 5.360 24.501
293.380 5.790 38.894
293.390 5.940 31.832
293.400 5.630 44.502
293.410 5.960 59.705
293.420 5.950 84.788
293.430 5.960 59.885
293.440 5.320 72.943
293.450 5.670 71.831
293.480 5.270 29.043
293.500 4.790 50.938
293.510 4.260 81.435
293.570 5.080 89.273
293.640 4.190 86.823
293.680 4.790 84.889
293.700 5.400 64.064
293.710 4.410 38.329
293.720 4.610 85.202
293.730 4.700 89.059
293.770 5.730 34.934
293.780 4.560 79.304
293.790 5.290 41.247
293.800 4.610 77.907
293.810 3.740 83.308
293.840 4.580 88.484
293.860 5.670 85.499
293.900 5.100 65.331
293.970 5.030 88.711
293.990 4.270 81.218
294.010 4.160 82.063
294.020 4.570 78.045
294.030 5.970 15.907
294.040 5.640 27.520
294.050 5.470 30.016
294.070 5.570 38.675
294.080 5.230 47.517
294.130 5.590 83.140
294.140 5.380 62.086
294.160 5.850 84.607
294.400 5.200 88.245
294.550 5.660 87.798
294.660 5.790 62.004
294.730 4.960 52.563
294.890 5.980 79.108
295.040 5.140 72.482
295.100 5.050 52.779
295.120 5.340 65.185
295.130 5.850 39.645
295.150 5.460 11.671
295.160 5.250 20.316
295.170 5.220 23.796
295.180 5.040 2.269
295.190 5.330 54.227
295.200 5.030 35.209
295.210 5.150 33.724
295.220 4.740 44.904
295.240 5.860 67.816
295.250 5.380 38.544
295.260 5.620 43.921
295.270 5.980 61.266
295.280 5.590 83.428
295.320 5.160 27.984
295.350 5.450 74.354
295.480 5.560 85.847
295.600 5.000 76.427
295.610 5.190 85.999
295.850 5.650 42.736
295.900 5.680 76.161
295.910 5.830 63.193
296.030 5.860 68.304
296.040 5.010 70.865
296.050 4.980 67.450
296.060 5.950 83.696
296.070 5.420 76.713
296.080 5.840 89.287
296.090 5.240 49.980
296.120 5.610 69.499
296.150 5.660 77.781
296.170 4.250 64.294
296.180 5.070 27.815
296.190 5.530 56.494
296.200 5.550 61.029
296.220 5.230 59.532
296.230 5.530 81.523
296.270 4.960 54.180
296.280 4.650 46.098
296.290 5.500 79.862
296.300 5.570 48.631
296.310 4.450 64.948
296.320 4.830 78.774
296.330 4.700 68.151
296.340 4.970 78.495
296.380 5.420 61.182
296.390 4.840 68.125
296.400 5.570 56.622
296.410 4.880 57.679
296.420 4.830 55.066
296.430 5.090 49.747
296.440 4.530 28.486
296.460 5.940 32.130
296.480 5.530 40.411
296.490 5.480 58.174
296.500 5.700 82.596
296.510 5.050 81.329
296.520 4.900 65.383
296.530 5.330 87.193
296.540 5.090 48.197
296.550 5.660 57.266
296.560 5.660 71.910
296.610 5.750 81.348
296.620 5.200 70.753
296.640 4.870 60.090
296.650 5.000 43.052
296.660 5.020 84.275
296.690 5.440 86.456
296.700 5.120 66.737
296.710 4.760 70.276
296.720 5.280 13.822
296.730 5.420 84.874
296.740 5.120 75.055
297.100 5.560 28.339
297.120 5.980 40.616
297.130 5.780 51.038
297.150 5.900 12.504
297.160 5.050 68.961
297.200 5.690 74.544
297.430 5.040 72.514
297.440 4.960 45.096
297.460 4.090 84.355
297.470 5.010 88.756
297.480 4.460 77.926
297.490 4.710 64.568
297.610 4.420 69.738
297.620 4.940 44.356
297.630 5.030 50.845
297.760 5.550 84.620
297.770 5.690 68.896
297.780 5.630 89.919
297.800 5.930 65.054
297.810 5.350 89.097
297.820 4.920 86.387
297.840 5.710 81.315
297.860 5.580 58.215
297.910 5.340 73.317
297.920 4.510 55.835
297.930 4.790 68.584
297.940 5.490 81.821
297.950 5.600 63.835
297.960 5.050 82.919
297.970 5.130 72.350
297.980 4.830 69.157
298.010 5.700 79.348
298.280 5.170 50.470
298.290 5.450 51.699
298.550 5.760 79.874
298.580 4.470 73.796
298.610 5.500 36.443
298.620 5.340 61.181
298.630 5.290 50.333
298.640 5.770 25.012
298.660 5.210 46.774
298.670 5.430 33.873
298.680 5.910 47.844
298.720 5.560 56.620
299.000 4.880 81.055
299.010 5.440 60.658
299.030 4.580 57.616
299.110 5.660 81.011
299.310 5.400 84.536
299.320 4.880 31.814
299.330 4.790 53.037
299.340 5.360 84.683
299.360 5.620 82.963
299.380 4.900 63.030
299.390 5.810 48.194
