# time(ns) distance (A) angle (deg)
7.630 4.930 30.581
7.700 4.950 42.099
7.720 4.580 36.387
7.880 4.940 33.201
7.900 4.360 1.073
7.920 4.970 24.872
8.020 4.900 27.787
8.030 4.220 27.301
8.040 3.770 19.687
8.050 4.150 16.391
8.170 4.970 25.028
8.180 4.430 31.757
8.210 4.640 44.780
8.220 4.530 36.822
8.250 4.870 42.009
8.270 4.630 35.980
8.330 4.980 43.551
8.390 4.950 36.841
8.840 4.390 43.962
9.810 4.540 24.235
9.820 4.140 40.470
9.830 3.900 19.066
9.840 4.190 35.936
9.850 4.290 28.237
9.860 4.420 31.762
9.870 3.980 20.749
9.890 4.510 6.916
9.900 4.290 27.809
9.920 4.900 18.003
10.370 4.540 12.538
10.470 4.960 16.537
12.430 4.920 42.873
13.180 4.420 35.164
13.220 4.570 44.674
13.230 4.950 34.123
13.260 4.630 11.380
13.270 4.420 34.568
13.280 4.480 41.640
13.290 4.450 16.351
58.660 4.960 32.691
58.670 4.520 39.526
58.680 4.970 28.009
58.690 4.160 23.026
58.710 4.130 34.930
58.720 4.710 35.113
58.740 4.570 21.288
58.760 4.440 44.018
58.770 4.130 39.515
58.780 4.330 37.420
58.790 3.790 36.229
58.810 4.140 41.308
58.820 4.350 34.513
58.830 4.210 35.202
58.840 4.390 26.662
58.850 4.230 34.282
58.860 4.680 35.298
58.870 4.350 32.336
58.890 4.830 29.876
58.900 4.850 37.864
58.910 4.390 21.692
58.930 4.450 42.765
58.940 4.150 39.480
58.950 4.690 43.870
58.960 4.700 43.360
59.020 4.490 38.598
59.030 4.210 34.050
59.040 4.840 27.734
59.060 4.250 38.421
59.070 4.630 40.799
59.300 4.650 39.155
59.320 4.240 42.637
59.340 4.110 38.488
59.360 4.080 43.257
59.370 4.580 43.838
59.380 4.870 35.584
59.410 4.610 34.361
59.420 4.880 34.963
59.430 4.680 43.126
59.450 4.330 35.558
59.610 4.540 16.802
59.620 3.910 25.258
59.630 3.940 4.771
59.660 4.160 33.013
59.670 4.160 35.382
59.680 3.810 30.251
59.690 4.010 27.479
59.700 4.450 20.056
59.720 4.110 38.210
59.740 4.590 31.047
59.750 4.400 17.059
59.820 4.770 30.316
59.870 4.340 23.596
59.880 4.690 34.059
59.890 4.600 39.542
59.900 4.690 27.128
60.250 3.810 38.352
60.310 4.110 42.685
60.320 4.570 31.909
60.340 4.160 39.559
60.370 4.170 44.688
60.390 4.270 42.312
60.420 4.370 28.706
60.430 3.870 30.960
60.440 3.860 20.452
60.450 4.720 19.797
60.470 4.260 25.967
60.480 4.800 44.269
60.490 4.590 31.988
60.500 4.550 29.621
60.510 4.100 28.785
60.720 4.210 40.673
60.730 4.810 31.070
60.740 4.920 32.445
60.770 4.140 42.136
60.790 4.690 18.313
60.800 4.330 37.057
60.810 4.820 26.306
60.820 4.890 38.601
60.860 4.480 37.971
60.870 4.760 31.148
60.880 4.310 25.070
60.930 4.650 40.582
60.950 4.540 31.470
60.990 4.500 31.488
61.030 4.520 38.907
61.120 4.440 42.406
61.130 4.270 41.399
61.160 4.960 39.674
61.170 4.670 37.165
61.180 4.290 30.911
61.200 4.680 26.865
61.210 4.700 36.503
61.220 4.470 32.292
61.230 4.600 26.474
61.260 4.830 30.013
61.270 3.960 36.708
61.280 4.370 40.923
61.290 4.080 29.647
61.320 4.270 31.417
61.330 4.990 41.818
61.350 4.590 35.187
61.370 4.320 37.094
61.380 4.390 29.446
61.390 4.210 23.597
61.410 4.440 36.957
61.420 4.790 34.673
61.500 4.870 41.968
61.510 3.960 40.799
61.560 4.780 40.297
61.570 4.940 30.208
61.590 4.790 37.201
61.600 4.890 27.355
61.620 4.210 33.459
61.630 4.220 28.412
61.650 4.300 23.417
61.670 4.680 22.816
61.680 4.250 35.197
61.690 4.330 28.960
61.700 4.540 22.021
61.720 4.010 35.229
61.740 4.200 26.730
61.750 4.360 41.028
61.790 4.450 25.026
61.800 4.120 35.129
61.810 4.630 44.710
61.820 4.320 35.659
61.840 4.400 31.485
61.850 4.670 24.846
61.860 4.460 29.733
61.870 4.990 16.260
61.900 4.730 13.802
61.910 4.520 43.133
61.920 4.890 21.338
61.930 4.040 36.524
61.950 4.500 30.422
61.970 4.800 15.801
61.990 4.830 43.111
62.000 4.550 42.303
62.010 4.290 8.192
62.020 4.110 9.385
62.030 4.020 39.583
62.040 4.100 32.774
62.050 4.240 44.394
62.060 4.480 43.774
62.070 4.440 37.802
62.110 4.350 42.112
62.180 4.410 34.297
62.250 4.140 43.606
62.320 4.440 27.781
62.330 4.670 30.721
62.340 4.520 16.781
62.590 4.170 40.103
62.620 4.450 26.199
62.690 4.320 40.765
62.800 4.540 36.072
62.810 4.610 37.393
62.820 4.570 41.581
62.840 4.760 16.028
62.850 4.640 37.184
62.860 4.260 44.790
62.890 4.620 44.626
62.900 4.570 40.511
62.920 4.750 42.166
62.970 4.560 33.563
63.000 4.930 35.455
63.010 4.970 35.776
63.040 4.000 44.928
63.060 4.380 42.520
63.110 4.900 41.256
63.120 4.350 40.559
63.130 4.580 19.549
63.140 4.490 38.417
63.150 4.700 34.661
63.160 4.830 30.736
63.170 4.750 30.755
63.190 4.080 36.652
63.210 4.590 38.695
63.220 4.680 36.644
63.230 4.720 38.061
63.240 4.390 37.555
63.260 4.530 42.533
63.280 4.620 32.140
63.300 4.290 39.716
63.310 4.380 42.448
63.320 4.350 40.235
63.340 4.740 39.797
63.350 4.810 39.336
63.370 4.590 27.100
63.380 4.660 24.694
63.390 4.660 34.908
63.410 4.730 38.156
63.430 4.250 31.056
63.450 4.410 30.910
63.460 3.980 43.268
63.470 4.080 36.466
63.480 4.230 41.990
63.490 4.060 39.301
63.510 4.830 43.328
63.530 4.250 33.247
63.540 4.270 40.225
63.550 4.560 30.814
63.560 4.500 44.997
63.570 4.540 26.313
63.580 4.490 33.132
63.590 4.580 27.383
63.600 4.290 31.332
63.610 4.210 34.183
63.640 4.260 39.974
63.650 4.070 43.215
63.710 4.500 40.201
63.730 4.710 41.156
63.760 4.430 38.635
63.770 4.310 32.144
63.780 4.330 37.012
63.790 4.660 40.634
63.800 4.540 23.467
63.820 4.920 27.954
63.830 4.210 20.664
63.840 3.880 34.494
63.850 4.810 28.657
63.860 4.390 39.131
63.880 3.940 42.287
63.900 4.580 38.788
63.910 3.750 29.045
63.920 4.230 31.309
63.930 4.030 40.281
63.940 4.210 28.830
63.950 4.040 40.404
63.970 4.310 37.694
64.010 4.090 35.435
64.020 3.760 33.977
64.080 4.920 31.532
64.090 4.240 43.690
64.120 4.510 30.446
64.130 4.630 27.102
64.140 4.100 42.397
64.150 3.950 13.801
64.160 4.280 37.575
64.190 4.300 33.347
64.200 4.090 32.502
64.210 4.280 31.613
64.220 4.420 29.913
64.230 4.260 24.145
64.240 4.070 43.907
64.250 4.760 30.119
64.260 4.260 43.137
64.270 4.340 43.783
64.320 4.450 26.307
64.330 4.210 44.909
64.340 4.350 22.101
64.350 4.110 29.385
64.380 4.360 34.653
64.400 4.460 38.503
64.420 4.480 27.072
64.430 4.420 37.892
64.440 3.870 25.889
64.460 4.450 41.985
64.490 4.300 38.142
64.500 4.500 21.677
64.510 4.280 25.119
64.520 4.330 40.129
64.530 4.560 34.707
64.540 4.500 27.560
64.550 4.190 39.358
64.560 4.650 35.693
64.580 4.220 34.551
64.590 3.960 41.880
64.600 4.050 30.545
64.620 4.190 44.626
64.630 4.730 29.275
64.640 4.280 28.904
64.670 4.570 32.184
64.690 4.350 31.446
64.700 3.990 29.895
64.710 4.650 32.939
64.720 4.680 34.541
64.730 3.960 18.413
64.740 4.200 26.537
64.750 4.100 39.776
64.760 4.410 31.844
64.770 4.210 28.714
64.780 4.370 29.227
64.800 4.540 32.481
64.810 4.290 26.842
64.830 4.430 38.159
64.840 4.740 25.469
64.850 4.670 29.677
64.860 4.220 36.755
64.870 4.150 30.486
64.880 3.850 33.615
64.920 4.430 30.516
64.980 4.980 33.615
64.990 4.430 36.440
65.000 4.880 41.225
65.010 4.350 33.508
65.020 4.120 36.190
65.070 4.260 41.537
65.100 4.400 42.951
65.130 4.070 42.746
65.140 4.850 27.654
65.180 4.570 39.457
65.210 4.450 36.641
65.220 4.470 26.468
65.230 4.370 40.758
65.240 4.880 40.214
65.250 4.230 43.928
65.270 4.410 33.442
65.280 3.890 20.354
65.450 4.120 28.472
65.470 4.960 40.425
65.480 4.620 36.750
65.500 4.350 32.785
65.510 4.470 42.457
65.530 4.730 30.376
65.540 4.600 44.067
65.550 4.390 28.115
65.570 4.490 39.749
65.590 4.670 40.048
65.630 4.880 34.553
65.640 4.780 40.665
65.660 4.470 16.158
65.690 4.610 39.278
65.710 4.350 37.959
65.730 4.460 42.697
65.860 4.670 30.802
65.890 3.720 39.205
65.900 4.220 36.221
65.910 4.120 37.186
65.920 4.120 33.045
65.930 4.190 29.683
66.070 3.820 24.558
66.080 4.570 18.084
66.090 4.430 36.242
66.100 4.260 37.402
66.110 4.840 25.070
66.120 4.670 16.341
66.160 3.930 33.792
66.180 4.100 26.711
66.190 4.440 24.585
66.210 4.270 43.775
66.230 4.520 40.187
66.250 4.920 44.024
66.260 4.300 32.434
66.270 4.490 38.349
66.280 4.160 36.932
66.320 4.540 39.254
66.330 4.360 16.341
66.340 4.990 32.568
66.370 4.990 29.733
66.380 4.600 30.598
66.390 4.690 37.183
66.400 4.490 35.683
66.450 4.120 39.044
66.460 4.570 28.730
66.470 4.190 31.051
66.520 3.940 23.819
66.530 4.270 40.854
66.540 4.270 38.605
66.560 4.470 40.676
66.570 4.430 35.167
66.590 4.550 35.645
66.610 4.540 21.383
66.630 4.470 38.498
66.640 4.090 20.691
66.650 4.500 38.157
66.660 4.800 24.715
66.670 4.620 43.241
66.680 4.920 36.499
66.690 4.340 27.624
66.700 3.940 34.517
66.720 4.450 32.577
66.730 4.130 36.060
66.740 4.460 41.351
66.770 4.590 41.969
66.780 4.460 38.278
66.790 4.600 41.910
66.810 4.540 39.972
66.840 4.320 34.784
66.880 4.170 42.404
66.890 4.420 37.829
66.900 4.760 28.304
66.920 4.360 30.023
66.960 4.620 42.357
67.110 4.960 26.873
67.230 4.280 37.531
67.240 4.550 41.185
67.250 4.310 20.337
67.270 4.780 31.604
67.280 4.930 30.591
67.310 4.530 39.821
67.320 4.470 39.706
67.530 4.340 29.722
67.700 4.710 34.432
67.710 4.500 38.310
68.400 4.430 33.167
68.410 4.290 31.328
68.430 4.890 44.925
68.470 4.350 39.734
68.550 4.710 26.916
68.560 4.980 31.682
68.580 4.350 36.354
68.590 4.430 28.749
68.600 4.160 41.940
68.610 4.290 30.621
68.620 3.990 37.542
68.630 4.460 10.549
68.640 4.250 39.975
68.650 3.850 32.502
68.660 4.370 36.936
68.680 4.100 41.018
68.700 3.880 27.820
68.720 4.110 38.727
68.730 4.240 35.625
68.740 4.620 40.783
68.750 4.210 42.107
68.800 4.810 34.762
68.830 4.250 44.629
68.850 3.910 44.201
68.860 4.400 36.394
68.870 4.770 20.986
68.880 4.990 38.454
68.890 4.210 39.019
68.900 4.390 40.450
68.910 4.630 37.932
68.920 4.370 29.380
68.930 4.050 37.554
68.940 4.440 44.430
68.950 4.760 39.291
68.970 4.590 35.329
68.980 3.940 35.221
68.990 4.060 36.804
69.010 4.160 32.726
69.020 4.390 40.036
69.030 4.250 32.058
69.040 4.350 37.807
69.050 4.280 44.658
69.060 4.450 39.014
69.070 4.240 35.068
69.080 4.360 43.908
69.100 4.240 42.675
69.110 4.120 30.265
69.120 4.600 43.686
69.150 4.310 39.441
69.160 4.650 19.582
69.170 4.250 14.234
69.180 4.970 37.544
69.200 4.800 41.068
69.220 4.850 41.786
69.240 3.990 35.524
69.260 4.190 12.427
69.320 4.430 29.216
69.410 4.930 11.776
69.570 4.440 32.959
69.580 4.280 39.245
69.590 4.250 40.755
69.600 4.320 38.774
69.610 4.480 38.812
69.620 4.500 32.476
69.630 4.310 20.155
69.640 4.970 14.190
69.650 4.710 34.782
69.660 4.910 31.077
69.670 4.370 43.558
69.680 4.720 33.474
69.690 4.520 34.176
69.700 4.250 43.058
69.710 4.550 43.340
69.740 4.510 37.668
69.760 4.270 35.524
69.770 4.120 35.832
69.840 4.800 32.667
69.850 4.410 15.465
69.860 4.720 24.353
69.870 4.570 33.157
69.880 4.480 38.853
69.890 4.750 36.387
69.920 4.430 27.664
69.930 4.220 28.462
69.960 4.990 40.847
69.990 4.020 37.207
70.000 4.680 33.314
70.020 4.620 35.543
70.030 4.750 34.028
70.040 4.320 44.111
70.050 4.330 38.011
70.060 4.190 39.792
70.070 4.350 35.237
70.090 4.250 32.606
70.100 4.040 35.385
70.110 4.220 31.747
70.120 4.090 39.841
70.140 4.250 42.033
70.150 4.550 35.371
70.160 3.970 40.294
70.170 4.430 38.080
70.190 4.030 43.983
70.200 4.910 38.622
70.210 4.710 41.415
70.220 4.610 39.165
70.270 4.710 31.694
70.280 4.170 35.970
70.290 4.820 35.924
70.300 4.800 34.429
70.320 4.410 44.003
70.360 4.750 25.064
70.380 4.830 22.245
70.390 4.650 33.431
70.400 4.280 26.873
70.420 3.900 40.909
70.430 4.990 39.585
70.440 4.580 44.252
70.480 4.670 43.327
70.490 4.890 33.495
70.520 4.020 38.125
70.530 4.020 34.894
70.540 3.850 34.857
70.600 4.600 39.142
70.650 4.260 35.421
70.700 4.390 42.885
70.710 4.530 37.508
70.730 4.740 35.520
70.760 4.470 40.118
70.800 4.250 36.139
70.830 4.240 21.978
70.840 3.930 37.153
70.850 4.920 26.650
70.890 4.790 39.203
70.970 4.220 39.743
70.990 4.640 37.276
71.010 4.220 31.141
71.020 4.410 38.680
71.030 4.280 41.761
71.040 4.250 37.398
71.050 4.200 43.453
71.060 4.560 32.751
71.070 4.340 30.928
71.090 4.840 40.719
71.100 4.420 44.134
71.110 4.200 35.657
71.130 4.640 40.276
71.140 4.130 37.305
71.180 4.260 31.180
71.190 4.130 37.461
71.200 4.290 39.610
71.210 4.200 36.450
71.220 4.520 41.666
71.250 4.240 32.757
71.270 4.450 36.679
71.280 4.580 26.334
71.290 4.270 34.677
71.300 4.940 43.503
71.310 4.900 37.188
71.320 4.570 37.286
71.330 4.120 33.238
71.420 4.580 23.001
71.440 4.850 37.229
71.490 4.550 32.524
71.690 4.350 41.791
71.710 4.650 31.693
71.720 4.190 40.821
71.730 4.180 36.639
71.740 4.220 34.775
71.750 4.750 29.772
71.770 4.340 38.383
71.790 4.350 42.403
71.830 4.540 33.821
71.840 4.050 30.750
71.850 4.490 33.388
71.890 4.600 27.163
71.940 3.870 42.223
71.960 4.470 24.662
71.970 4.480 36.514
72.000 4.950 32.568
72.060 4.740 24.638
72.080 4.500 41.127
72.100 4.030 41.711
72.120 4.040 40.747
72.130 4.480 36.295
72.140 4.080 30.130
72.160 3.950 34.499
72.170 4.480 23.977
72.180 4.280 39.394
72.190 4.190 28.011
72.200 4.790 41.234
72.210 4.490 43.013
72.230 4.420 34.234
72.240 4.640 35.284
72.250 4.140 39.985
72.260 3.990 40.254
72.290 4.240 43.828
72.310 4.210 41.714
72.350 4.610 35.692
72.360 4.330 38.299
72.370 4.690 34.444
72.380 4.890 31.431
72.390 4.980 40.952
72.400 4.390 43.107
72.410 4.550 42.972
72.420 4.230 38.413
72.430 4.580 25.796
72.440 4.850 25.477
72.450 4.960 33.489
72.460 4.420 29.137
72.470 4.240 44.714
72.480 4.240 29.240
72.500 4.700 36.273
72.510 4.740 36.440
72.530 4.010 39.880
72.540 4.750 39.549
72.550 4.690 39.334
72.560 4.330 30.972
72.570 4.790 34.247
72.580 4.510 27.225
72.590 4.790 42.884
72.600 4.350 37.762
72.630 4.570 37.820
72.640 4.280 36.811
72.670 4.980 15.976
72.690 4.040 37.166
72.700 4.360 42.624
72.710 4.170 32.470
72.730 4.010 27.227
72.740 4.790 40.182
72.760 4.110 37.309
72.770 4.440 29.564
72.780 4.050 40.497
72.790 4.260 44.205
72.800 4.480 37.525
72.810 4.510 39.845
72.830 4.470 40.537
72.920 4.900 30.646
72.930 4.370 23.476
72.940 4.920 18.139
72.950 4.940 18.058
72.960 4.680 23.203
72.970 4.830 44.324
72.990 4.590 27.683
73.000 4.970 43.712
73.030 4.240 33.828
73.040 4.450 39.762
73.050 4.610 42.814
73.080 4.920 43.187
73.150 4.820 18.989
73.160 4.640 24.787
73.170 4.650 40.385
73.180 4.520 33.347
73.420 4.550 38.321
73.440 4.850 29.885
73.450 4.620 35.337
73.460 4.300 21.079
73.470 4.290 34.095
73.480 4.450 44.570
73.500 4.600 41.157
73.510 4.630 39.416
73.680 4.330 43.814
73.740 4.170 19.225
73.760 4.680 36.080
73.770 4.360 36.042
73.780 3.990 27.205
73.800 4.040 41.813
73.810 4.250 44.335
73.850 4.660 38.241
73.860 4.330 42.562
73.870 3.870 42.049
73.880 4.420 39.047
73.890 4.910 42.809
73.910 4.510 39.242
73.980 4.340 19.829
73.990 4.130 23.030
74.020 3.950 23.306
74.030 4.190 23.549
74.060 4.380 32.432
74.070 4.630 31.826
74.080 4.290 25.387
74.100 4.540 26.959
74.110 4.260 38.700
74.140 4.290 28.924
74.170 4.330 34.550
74.190 4.420 26.389
74.200 4.500 30.523
74.210 3.970 39.719
74.220 4.260 42.094
77.970 4.710 40.642
77.990 4.530 20.141
78.000 4.190 34.412
78.010 4.190 34.545
78.020 4.020 40.800
78.040 4.250 37.736
78.050 4.650 33.969
78.060 4.430 26.402
78.070 4.320 37.170
78.080 4.040 40.106
78.090 4.340 40.536
78.100 4.130 37.847
78.110 4.570 36.404
78.120 4.310 29.521
78.140 4.570 41.184
78.150 4.150 20.245
78.170 4.140 35.427
78.180 3.880 10.870
78.190 4.640 44.670
78.210 4.540 39.810
78.220 4.430 39.048
78.230 4.160 43.678
78.240 4.260 35.129
78.250 4.410 37.015
78.260 4.380 41.920
78.270 4.000 34.234
78.280 4.260 33.690
78.290 4.410 35.789
78.300 4.170 32.279
78.310 3.970 38.900
78.320 4.340 41.304
78.330 4.660 40.204
78.350 3.980 31.658
78.380 4.560 25.917
81.120 4.300 37.893
81.130 4.730 32.598
81.140 4.590 31.235
81.150 4.800 21.889
81.210 4.530 29.358
81.260 4.410 41.898
81.270 4.650 29.027
81.290 4.300 30.487
81.300 4.390 33.647
81.310 4.120 32.089
81.450 4.410 37.277
82.930 4.870 43.127
83.000 4.130 41.789
83.010 4.420 32.550
83.040 4.400 43.745
83.070 4.710 31.731
83.080 4.670 38.380
83.090 4.970 39.731
83.100 4.360 36.014
83.120 4.640 25.978
83.130 4.410 35.089
83.140 3.860 26.010
83.150 4.070 39.524
83.160 4.450 32.916
83.220 4.150 36.523
83.230 4.250 43.769
83.240 4.230 35.557
83.280 4.890 29.195
83.320 4.970 35.647
83.340 4.110 35.886
83.350 4.700 28.023
83.360 4.120 40.229
83.370 3.880 44.105
83.380 3.980 38.217
83.390 4.190 39.148
83.410 4.420 36.270
83.430 4.260 41.968
83.440 4.170 26.343
83.450 3.940 43.295
83.460 4.260 27.657
83.520 4.320 44.626
83.530 4.510 37.412
83.540 4.190 43.835
83.550 4.820 42.089
83.580 4.200 35.288
83.590 4.340 30.810
83.600 4.490 31.445
83.610 4.020 41.646
83.620 4.840 41.006
83.630 4.470 38.139
83.640 4.500 42.862
83.690 4.360 37.380
83.700 4.610 23.315
83.710 4.530 31.383
83.720 4.390 23.571
83.730 4.250 37.418
83.740 4.310 34.830
83.750 4.390 40.500
83.770 4.300 44.684
83.790 4.500 33.669
83.800 4.540 37.199
83.810 4.680 42.540
83.830 4.540 26.359
83.850 4.820 39.224
83.860 4.220 32.486
83.870 4.970 37.913
83.880 4.720 42.535
83.900 4.420 44.907
83.910 4.730 40.220
83.920 4.690 42.060
83.930 4.500 41.173
83.940 4.650 36.140
83.960 4.520 32.621
83.980 4.870 37.425
83.990 4.560 44.661
84.010 4.450 39.264
84.020 4.290 41.480
84.060 3.930 26.200
84.210 4.760 29.737
84.240 4.250 38.511
84.250 4.760 43.870
84.260 4.770 30.124
84.280 4.290 22.398
84.290 4.840 27.947
84.300 3.890 41.338
84.310 4.820 43.209
84.330 4.170 39.977
84.370 4.870 28.342
84.380 4.390 38.157
84.390 4.480 36.872
84.410 4.130 29.143
84.440 4.440 26.224
84.460 4.400 36.192
84.480 4.740 37.539
84.490 4.220 42.603
84.500 4.230 25.671
84.520 4.640 30.945
84.530 3.950 39.031
84.560 4.730 31.355
84.570 4.500 36.543
84.580 4.120 28.952
84.590 4.230 28.993
84.620 4.450 42.809
84.640 4.370 28.942
84.660 4.330 41.157
84.670 4.150 35.967
84.690 4.300 40.105
84.700 4.050 39.094
84.730 4.330 27.361
84.740 4.220 31.773
84.790 4.180 29.842
84.800 4.430 17.487
84.870 4.110 40.379
84.880 4.180 24.923
84.890 4.470 40.366
84.900 4.340 16.331
84.910 4.410 27.158
84.920 4.820 33.847
84.930 4.150 40.203
84.940 4.510 32.007
84.950 4.530 40.401
84.960 4.690 42.946
84.980 4.220 38.219
84.990 4.230 15.762
85.000 4.160 21.712
85.010 3.890 38.422
85.020 4.160 43.665
85.030 4.520 33.222
85.040 4.200 35.855
85.050 4.050 40.257
85.060 4.930 31.545
85.070 4.670 22.171
85.080 3.560 26.357
85.100 4.050 34.076
85.110 4.120 36.900
85.140 3.910 38.980
85.150 4.210 41.175
85.160 4.610 21.835
85.180 4.730 43.243
85.210 4.950 30.949
85.220 4.220 37.775
85.240 4.160 29.454
85.260 4.120 31.399
85.290 4.340 35.164
85.310 4.470 38.094
85.340 4.540 27.565
85.350 4.360 25.572
85.360 4.200 36.462
85.370 4.110 38.291
85.380 4.240 36.405
85.390 4.710 21.214
85.400 4.730 28.830
85.410 4.580 26.862
85.420 4.670 32.719
85.430 4.180 41.304
85.440 3.970 37.810
85.450 4.260 30.488
85.470 3.880 43.710
85.480 4.340 32.605
85.500 4.390 37.963
85.530 4.250 42.010
85.550 4.640 39.161
85.560 4.470 28.887
85.570 4.820 28.626
85.580 4.310 35.707
85.590 4.630 28.742
85.610 4.380 28.137
85.630 3.920 33.594
85.650 4.510 30.489
85.660 4.550 20.229
85.670 4.270 14.237
85.680 4.110 44.836
85.700 4.180 41.087
85.720 4.440 35.991
85.740 4.090 34.948
85.750 4.990 25.411
85.770 4.890 32.630
85.780 4.220 23.356
85.790 4.570 36.050
85.800 4.810 40.369
85.810 4.610 35.117
85.820 4.220 26.916
85.860 4.010 39.208
85.870 4.120 36.854
85.880 3.930 34.569
85.890 4.000 43.674
85.910 4.050 34.689
85.920 3.960 43.283
85.930 4.770 40.745
85.940 4.340 32.923
85.950 4.110 43.617
85.960 4.270 43.683
85.970 4.810 43.220
85.990 4.640 35.101
86.010 4.290 31.733
86.020 4.120 44.695
86.030 4.370 34.840
86.040 4.070 39.902
86.050 4.330 42.352
86.090 4.490 41.660
86.100 4.090 35.501
86.110 4.040 33.012
86.120 4.740 44.515
86.130 4.740 26.520
86.160 4.660 44.590
86.180 4.390 14.118
86.190 4.470 37.742
86.200 4.570 27.829
86.210 4.670 25.657
86.220 4.730 26.034
86.230 4.400 30.068
86.250 3.980 27.185
86.260 4.730 34.720
86.270 4.550 38.623
86.280 4.550 33.790
86.310 4.820 35.599
86.470 4.750 24.076
86.480 4.530 23.090
86.530 4.240 31.913
86.550 4.510 43.954
86.560 4.540 35.513
86.620 4.900 30.044
86.640 4.920 40.927
86.660 4.090 43.952
86.710 4.530 23.480
86.730 4.580 31.295
86.740 4.150 29.970
86.750 4.980 30.499
86.760 4.890 27.181
86.770 4.420 43.655
86.830 4.520 34.194
86.840 4.640 33.433
86.850 4.210 44.978
86.880 4.820 21.179
86.920 4.180 41.652
86.930 4.610 41.026
86.950 4.510 27.471
86.970 4.230 39.496
86.980 4.800 35.855
86.990 4.170 30.656
87.000 4.050 40.706
87.010 4.510 41.069
87.030 4.250 43.001
87.040 4.250 43.915
87.050 4.090 39.142
87.080 4.240 41.064
87.090 4.130 29.662
87.100 4.120 40.931
87.110 4.120 31.903
87.120 4.250 32.235
87.130 4.610 40.561
87.150 3.710 27.183
87.160 4.470 42.102
87.180 4.720 30.297
87.190 4.690 30.988
87.210 3.990 44.228
87.220 4.320 38.614
87.230 4.250 33.927
87.240 4.560 29.983
87.260 4.030 35.332
87.270 4.700 29.204
87.290 4.340 41.110
87.300 4.100 44.875
87.320 4.780 26.131
87.340 4.360 35.794
87.370 4.390 42.452
87.390 4.020 35.215
87.400 4.710 25.595
87.410 4.890 35.625
87.420 4.580 38.396
87.480 4.680 34.225
87.490 4.880 37.802
87.500 4.420 40.241
87.520 4.640 33.979
87.530 4.790 27.519
87.540 4.610 40.535
87.550 4.660 33.985
87.580 4.580 30.399
87.610 4.530 44.564
87.680 4.470 35.715
87.710 4.660 30.280
87.750 4.400 33.209
87.770 4.150 29.595
87.780 4.320 20.533
87.790 4.230 42.924
87.810 4.480 26.667
87.820 4.720 34.974
87.830 4.970 35.684
87.850 4.510 35.574
87.860 4.520 26.493
87.870 4.320 39.290
87.880 4.350 44.779
87.890 4.750 30.091
87.920 4.810 32.135
87.930 4.400 44.720
87.970 4.680 36.194
87.980 4.310 37.638
87.990 4.290 33.246
88.000 4.560 41.925
88.010 4.350 39.736
88.020 4.640 42.350
88.030 4.480 44.207
88.040 4.730 27.481
88.050 4.600 35.695
88.060 4.500 37.350
88.070 4.330 32.602
88.080 4.340 42.187
88.090 4.320 42.199
88.100 4.020 35.752
88.120 4.000 37.049
88.130 4.100 37.113
88.180 4.400 44.990
88.200 4.520 33.405
88.210 4.270 28.871
88.220 4.520 44.734
88.230 4.380 35.946
88.240 4.580 41.210
88.260 4.360 34.810
88.270 4.840 35.586
88.300 4.240 39.822
88.330 4.580 23.734
88.350 4.570 30.151
88.360 4.330 43.425
88.390 4.760 37.821
88.410 4.640 28.441
88.420 4.790 28.523
88.450 4.320 43.619
88.470 3.970 36.962
88.480 4.070 40.347
88.490 4.150 36.181
88.520 4.730 39.113
88.550 4.140 32.851
88.570 4.640 27.459
88.580 4.120 32.155
88.590 4.650 34.075
88.600 4.490 41.043
88.620 4.120 38.577
88.630 3.880 37.426
88.640 4.050 40.754
88.650 4.080 43.762
88.660 3.950 28.485
88.670 3.900 40.950
88.680 3.950 38.836
88.700 4.050 42.331
88.710 4.830 42.899
88.720 4.480 33.706
88.730 4.470 39.448
88.740 4.370 37.418
88.750 4.110 41.230
88.770 4.360 28.293
88.780 4.460 23.471
88.790 4.210 33.263
88.800 4.160 44.181
88.810 3.790 31.297
88.820 4.470 15.180
88.850 3.960 38.751
88.860 4.390 35.469
88.870 4.200 35.038
88.880 4.450 18.915
88.890 4.200 24.940
88.920 4.440 29.012
88.940 4.210 32.608
88.950 4.480 25.133
88.960 4.650 34.916
88.970 4.580 34.403
88.990 4.170 33.963
89.000 4.070 35.617
89.010 4.520 19.637
89.030 4.050 38.346
89.040 4.630 36.431
89.060 4.480 37.962
89.070 4.490 37.646
89.080 4.280 44.448
89.090 4.370 36.325
89.110 4.240 30.361
89.120 4.630 30.056
89.130 3.870 34.264
89.140 3.930 36.565
89.150 4.300 41.220
89.160 4.500 31.291
89.170 4.580 41.874
89.180 4.430 36.650
89.190 4.170 34.960
89.200 4.560 34.782
89.210 4.310 40.464
89.220 4.220 36.517
89.230 4.260 42.840
89.240 3.920 41.198
89.250 3.830 43.124
89.260 4.090 38.652
89.270 4.830 18.715
89.280 4.210 37.555
89.320 4.900 39.617
89.330 4.580 35.663
89.350 4.220 30.358
89.360 4.720 33.067
89.370 4.700 28.778
89.530 4.310 29.982
89.560 4.760 41.947
89.570 4.320 37.855
89.670 4.340 26.599
89.720 4.080 30.770
89.740 4.730 40.168
89.780 4.970 17.738
89.800 4.330 36.603
89.820 4.310 36.034
89.830 4.740 36.096
89.900 4.140 35.785
89.920 4.220 32.296
89.930 4.380 32.814
89.940 4.080 38.236
89.950 4.470 39.777
89.960 4.350 28.092
89.980 3.880 35.124
89.990 3.960 37.472
90.010 4.280 39.858
90.050 4.380 28.462
90.070 4.310 43.171
90.160 4.270 41.206
90.180 4.710 44.276
90.190 4.130 32.280
90.220 4.690 26.960
90.230 4.700 28.054
90.240 4.520 25.562
90.260 4.600 30.310
90.270 4.270 38.847
90.280 4.170 25.340
90.310 4.650 42.219
90.360 4.480 26.564
90.420 4.590 15.349
90.430 4.140 38.557
90.440 4.170 7.487
90.450 4.720 27.742
90.470 4.450 30.537
90.480 4.830 35.838
90.490 4.420 27.990
90.530 4.960 41.777
90.540 4.440 31.450
90.560 4.110 44.545
90.600 4.150 33.522
90.610 4.960 25.178
90.620 4.750 26.644
90.630 4.380 40.806
90.640 3.970 28.621
90.670 4.320 35.304
90.680 4.890 23.858
90.690 4.790 29.629
90.700 4.320 38.033
90.710 3.990 24.688
90.720 4.350 41.521
90.730 4.210 32.122
90.750 4.360 42.913
90.760 4.020 34.086
90.770 4.240 32.360
90.780 4.600 44.091
90.790 4.900 27.569
90.800 4.560 29.847
90.820 4.610 37.051
90.830 4.770 36.530
90.850 4.520 42.273
90.860 4.340 40.437
90.890 4.820 41.281
90.960 4.750 44.912
90.980 4.850 31.078
90.990 4.780 39.347
91.140 4.000 29.638
91.180 4.240 39.403
91.200 4.560 7.821
91.320 4.550 29.097
91.330 4.440 37.393
91.340 4.200 43.842
91.350 4.180 40.401
91.370 4.820 31.495
91.380 4.280 18.162
91.390 4.290 43.374
91.400 4.080 39.010
91.430 4.240 20.468
91.440 4.660 26.979
91.660 4.670 19.534
91.700 4.590 43.522
91.710 4.480 44.040
91.720 3.980 32.690
91.740 4.160 36.401
91.750 4.730 20.577
91.760 4.430 43.666
91.780 4.190 42.048
91.790 4.680 42.174
91.810 4.700 39.128
91.890 4.580 36.919
91.970 4.230 44.967
91.990 4.710 39.589
92.000 4.410 35.081
92.020 4.070 40.668
92.030 4.650 29.527
92.050 4.090 44.584
92.060 4.660 42.845
92.070 4.420 27.402
92.370 4.660 43.528
92.380 4.450 42.735
93.440 4.790 29.583
93.450 4.410 21.912
93.530 4.340 29.378
93.540 4.770 32.977
93.600 4.730 31.992
93.670 4.460 41.656
93.680 4.730 29.244
93.690 4.900 34.094
93.720 4.820 38.751
93.730 4.130 32.838
93.740 4.210 31.700
93.750 4.610 43.615
93.760 4.960 28.758
93.830 4.800 27.057
93.840 4.840 34.674
93.860 4.280 32.220
93.900 4.090 37.302
93.910 4.810 39.999
93.920 4.330 42.860
93.930 4.080 42.035
93.940 4.320 44.248
93.950 4.840 34.880
93.960 4.830 40.587
93.980 4.240 43.256
93.990 4.630 35.005
94.000 4.290 34.016
94.010 4.750 31.467
94.020 3.990 36.475
94.030 4.130 41.554
94.050 4.710 12.474
94.070 4.780 29.627
94.080 4.240 29.720
94.090 4.380 39.546
94.100 4.930 23.812
94.110 4.600 27.188
94.120 4.680 29.745
94.130 4.500 34.718
94.140 3.980 30.335
94.150 4.070 42.532
94.160 4.480 27.409
94.180 4.690 31.723
94.190 4.680 30.840
94.200 4.390 42.394
94.220 4.410 37.316
94.240 3.960 29.369
94.250 4.940 22.189
94.260 4.880 21.465
94.270 4.520 40.085
94.280 4.580 27.406
94.300 4.760 7.919
94.310 4.560 9.910
94.320 4.590 28.108
94.330 4.330 31.906
94.380 4.870 35.481
94.540 4.390 28.704
94.580 3.840 41.829
94.590 4.240 35.889
94.600 4.500 39.711
94.630 4.540 42.411
94.640 4.930 40.741
94.680 4.590 24.550
94.690 4.240 30.472
94.710 4.300 29.425
94.730 4.370 33.672
94.740 4.840 44.482
94.820 4.330 32.680
94.830 3.940 41.629
94.910 4.980 39.751
94.920 4.610 32.654
94.930 4.810 26.768
94.960 4.420 36.120
94.980 4.550 24.006
95.000 3.940 16.238
95.010 4.060 25.595
95.020 4.350 15.634
95.050 4.280 38.026
95.060 4.850 33.814
95.070 4.640 44.907
95.080 4.870 27.643
95.090 4.620 38.480
95.110 3.880 19.001
95.120 4.100 36.419
95.130 4.210 36.189
95.140 4.360 40.335
95.180 4.380 26.829
95.190 4.380 34.293
95.200 4.280 39.475
95.210 4.460 35.237
95.510 4.630 43.663
95.560 4.530 37.684
95.630 4.990 39.629
95.660 4.540 36.662
95.680 4.780 24.503
95.690 4.730 19.077
95.700 4.800 41.483
95.710 4.700 43.236
95.730 4.560 32.269
95.740 4.710 36.330
95.750 4.180 27.385
95.760 4.340 35.744
95.770 4.560 43.220
95.780 4.590 30.867
95.800 4.180 35.970
95.810 4.610 43.125
95.820 4.800 41.768
95.830 4.420 26.634
95.850 4.580 24.648
95.940 4.470 40.533
95.950 4.200 29.046
95.960 4.490 37.408
95.970 4.140 40.970
95.980 4.530 24.295
96.000 4.680 31.857
96.070 4.200 30.973
96.090 4.230 29.012
96.100 4.220 44.106
96.110 4.520 28.269
96.120 4.340 42.716
96.140 4.610 30.058
96.150 4.440 37.933
96.160 4.170 41.292
96.170 4.350 32.846
96.180 4.290 41.896
96.190 4.510 26.945
96.230 4.420 35.382
96.300 4.970 44.181
96.320 4.110 36.052
96.330 3.970 15.098
96.360 4.830 35.785
96.420 4.270 43.603
96.430 4.220 25.867
96.450 4.490 26.631
96.470 4.420 26.533
96.480 4.360 30.931
96.490 4.010 39.487
96.520 4.120 30.120
96.530 4.490 23.773
96.540 4.500 36.203
96.550 4.820 35.682
96.570 4.870 37.357
96.580 4.990 22.395
96.600 4.270 43.416
96.610 4.630 28.063
96.630 4.290 24.950
96.640 4.890 28.709
96.660 4.340 34.629
96.670 4.140 33.957
96.680 3.960 35.766
96.700 4.090 33.528
96.710 4.490 37.571
96.720 4.300 34.728
96.750 4.430 35.907
96.760 4.010 40.805
96.780 4.710 37.291
96.790 4.490 32.150
96.800 4.730 27.531
96.810 4.970 36.715
96.820 4.260 34.212
96.830 4.340 42.708
96.850 4.240 21.299
96.860 4.530 29.992
96.870 4.350 39.001
96.880 4.450 33.617
96.890 4.500 27.286
96.900 4.060 28.426
96.910 4.670 36.813
96.920 4.410 40.710
96.930 4.130 30.639
96.940 4.710 31.562
96.950 4.380 26.839
96.960 4.220 30.246
96.970 4.240 31.840
96.990 4.890 16.928
97.000 4.700 43.230
97.010 4.140 34.100
97.020 4.230 38.308
97.030 4.860 41.828
97.040 4.110 32.768
97.050 4.300 43.397
97.060 4.090 37.196
97.070 4.350 27.668
97.080 4.430 27.962
97.100 4.500 31.725
97.120 4.490 37.584
97.210 4.970 39.112
97.230 4.250 41.644
97.250 4.840 8.155
97.260 4.530 4.407
97.270 4.170 25.379
97.280 4.500 37.903
97.290 4.330 41.956
97.310 4.510 41.295
97.320 4.580 27.487
97.330 4.320 35.130
97.340 4.450 35.729
97.350 4.610 26.093
97.370 4.680 34.491
97.380 4.030 32.433
97.400 4.720 30.387
97.490 4.300 31.124
97.560 4.330 41.142
97.570 4.450 32.525
97.630 4.940 35.808
97.650 4.470 43.841
97.670 4.870 30.074
97.720 4.520 34.556
97.730 4.200 30.868
97.740 4.770 22.730
97.780 4.710 43.391
97.790 4.830 29.170
97.810 4.040 40.111
97.820 4.870 43.669
97.830 4.590 26.394
97.840 4.580 33.370
97.850 4.680 31.421
97.890 4.890 26.298
97.930 4.350 43.525
97.980 4.500 33.003
98.000 4.540 25.302
98.020 4.350 29.074
98.040 4.420 42.852
98.050 4.310 31.248
98.060 4.060 35.325
98.070 4.590 37.994
98.080 4.430 31.124
98.090 4.870 38.136
98.100 4.460 37.885
98.140 4.920 40.125
98.150 4.230 42.105
98.160 4.630 39.547
98.190 4.680 17.375
98.210 4.250 36.597
98.220 3.930 42.248
98.230 4.290 42.546
98.250 4.920 27.045
98.270 4.180 42.313
98.280 4.020 38.760
98.320 3.960 38.421
98.330 4.350 40.580
98.350 4.210 38.355
98.360 4.540 32.768
98.420 4.570 35.364
98.430 4.340 37.137
98.440 4.650 32.020
98.460 4.490 33.304
98.470 4.200 39.962
98.480 4.310 43.897
98.490 4.220 28.284
98.500 4.430 42.826
98.520 4.440 22.181
98.530 4.290 24.711
98.540 4.250 40.577
98.550 4.830 31.786
98.580 4.380 37.559
98.590 4.300 28.631
98.600 4.550 38.068
98.610 4.280 27.140
98.620 4.090 31.338
98.630 4.270 30.856
98.640 4.310 28.404
98.660 4.620 34.456
98.670 4.430 37.903
98.680 4.830 39.534
98.690 4.770 23.809
98.700 4.770 36.283
98.710 4.720 33.060
98.770 4.280 36.321
98.800 4.850 26.140
98.830 4.740 30.542
98.850 4.350 42.517
98.870 4.110 31.163
98.880 4.770 38.877
98.890 4.100 39.316
98.910 4.210 31.813
98.920 4.600 31.439
98.930 4.740 34.919
98.950 4.390 39.658
99.030 4.710 38.368
99.040 4.500 41.740
99.060 4.380 29.883
99.210 4.570 38.856
99.560 4.930 41.264
99.790 4.500 16.501
99.800 4.180 23.780
99.850 4.310 40.708
99.860 4.500 20.543
99.870 4.150 35.585
99.880 4.430 29.089
99.890 3.880 27.363
99.940 4.220 43.755
99.990 4.500 34.430
100.040 4.480 16.183
101.950 4.540 26.223
101.960 3.890 32.809
103.660 4.980 37.816
125.980 4.250 27.905
126.020 4.740 30.276
126.030 4.680 29.255
126.040 4.810 32.951
126.050 4.500 44.619
126.070 4.590 18.959
126.080 4.520 30.519
126.090 4.880 30.233
126.100 4.100 41.100
126.120 4.230 33.577
126.140 4.290 29.357
126.150 4.330 27.057
126.160 3.900 36.423
126.180 4.390 30.365
126.190 4.340 17.214
126.210 4.800 21.907
126.230 4.980 21.193
126.240 4.630 25.431
126.260 4.930 41.282
126.320 4.660 26.826
126.340 4.110 44.059
126.360 4.480 32.945
126.380 4.110 33.327
126.390 4.530 36.484
126.410 4.080 33.933
126.430 3.910 25.668
126.440 4.310 34.217
126.450 4.440 30.080
126.460 3.860 37.226
126.480 4.770 36.068
126.490 4.590 22.406
126.500 4.330 29.391
126.520 4.070 37.860
126.530 4.350 39.542
126.540 4.420 39.670
126.550 4.020 43.642
126.580 4.950 41.312
126.590 4.640 15.873
126.600 4.200 27.623
126.620 4.050 39.064
126.660 4.640 36.652
126.670 4.670 32.258
126.710 4.470 44.914
126.740 4.550 35.669
127.060 4.550 38.134
127.080 4.490 40.268
127.120 4.250 32.887
127.130 4.880 14.402
127.140 4.070 29.931
127.150 4.980 33.174
127.160 4.900 38.096
127.180 4.990 17.692
127.220 4.450 44.207
127.240 4.110 43.724
127.260 4.130 38.780
127.290 4.330 30.226
127.300 3.980 29.912
127.310 4.600 26.677
127.320 4.080 31.804
127.330 4.680 41.236
127.360 4.410 41.676
127.400 4.540 39.766
127.410 4.490 28.112
127.420 4.320 11.592
127.430 4.060 38.172
127.870 4.970 34.158
127.890 4.590 42.725
127.910 3.980 43.908
127.920 4.550 42.369
127.940 4.690 26.995
127.950 4.580 27.902
127.960 4.340 32.010
127.970 4.430 40.855
127.980 4.340 30.769
127.990 4.140 43.545
128.000 4.680 36.767
128.070 4.140 44.015
128.110 4.160 39.157
128.140 4.650 23.525
128.150 4.030 42.099
128.160 4.790 36.193
128.170 4.050 37.820
128.230 4.980 37.578
128.240 4.660 33.417
128.250 4.270 37.055
128.280 4.290 39.901
128.290 3.950 33.926
128.300 4.410 42.110
128.310 4.470 44.840
128.350 4.590 39.391
128.360 4.000 23.363
128.370 3.930 44.855
128.380 4.740 42.323
128.560 4.520 23.823
128.570 4.360 43.405
128.600 4.490 34.076
128.620 4.700 36.518
128.640 3.980 41.677
128.650 4.290 38.600
128.660 4.560 37.177
128.670 4.370 40.127
128.680 4.550 40.274
128.690 4.010 30.175
128.700 4.710 26.161
128.710 4.600 34.797
128.750 4.030 26.457
128.760 4.620 37.359
128.770 4.720 32.767
128.790 4.190 44.105
128.930 4.910 30.164
128.980 4.180 40.357
129.030 4.990 40.640
129.060 4.730 42.390
129.110 4.650 30.231
129.180 4.780 43.996
129.190 4.540 42.033
129.210 4.730 22.726
129.220 4.420 35.772
129.230 4.230 44.160
129.260 4.640 31.525
129.270 4.310 35.256
129.280 4.580 36.450
129.290 4.110 42.913
129.300 4.390 35.997
129.320 4.500 28.265
129.360 4.220 43.316
129.370 3.890 27.904
129.380 4.050 30.901
129.410 4.940 35.351
129.420 4.890 38.032
129.430 4.650 23.910
129.470 4.990 17.630
129.510 4.210 33.640
129.530 4.580 37.554
129.540 4.710 22.975
129.550 4.220 27.385
129.580 4.530 38.767
129.610 4.880 44.648
129.630 4.710 44.965
129.730 4.930 39.255
129.740 4.620 27.922
129.750 4.540 42.297
129.760 4.150 39.767
129.780 4.930 29.230
129.790 4.480 28.091
129.820 4.400 38.789
129.830 4.210 37.993
129.850 4.120 30.671
129.880 4.330 37.026
129.890 4.600 35.587
129.900 4.650 30.477
129.920 4.290 32.641
129.940 4.110 38.132
129.950 4.840 44.339
129.960 4.130 44.316
129.970 4.800 40.624
129.990 4.210 36.749
130.010 4.370 41.330
130.020 4.380 25.158
130.030 4.170 35.528
130.040 4.940 30.940
130.060 4.570 37.599
130.080 4.940 18.698
130.100 4.340 23.538
130.110 4.370 37.514
130.140 4.400 27.790
130.150 4.220 32.809
130.170 4.180 31.786
130.180 4.440 41.628
130.190 4.450 25.320
130.240 4.310 37.404
130.850 4.590 37.040
130.870 4.980 38.585
130.890 4.720 43.372
130.910 4.670 26.671
130.930 4.630 41.793
130.970 4.690 27.870
130.980 4.260 28.811
131.000 4.900 38.635
131.010 4.440 37.828
131.040 4.670 39.026
131.080 4.450 34.942
131.100 4.920 33.700
131.110 4.850 30.665
131.120 4.320 44.183
131.130 4.450 38.850
131.140 4.270 33.400
131.150 4.140 37.309
131.180 4.440 28.809
131.190 4.840 28.796
131.200 4.530 33.160
131.860 4.670 34.385
131.880 4.430 36.277
131.890 4.410 26.492
131.910 4.720 25.443
131.980 4.510 31.541
132.470 4.870 29.370
132.480 4.840 35.389
132.810 4.930 39.819
132.820 4.940 24.578
132.840 4.920 33.554
132.860 4.510 41.735
132.890 4.700 37.249
132.910 4.890 31.603
132.920 4.180 43.263
132.930 4.160 39.152
132.960 4.560 32.003
132.980 4.960 33.793
132.990 4.360 33.497
133.010 4.900 27.487
133.030 4.720 32.255
133.040 4.940 38.356
133.120 4.730 22.404
133.140 4.430 39.390
133.150 4.260 34.390
133.160 4.410 31.162
133.170 4.940 22.113
133.180 4.650 36.207
133.210 4.350 40.912
133.230 4.330 23.770
133.240 4.760 14.051
133.250 4.540 34.364
133.260 4.250 28.665
133.280 4.240 30.126
133.290 4.070 35.292
133.310 4.290 36.734
133.320 4.980 29.963
133.330 4.380 37.488
133.340 4.370 30.116
133.350 4.290 32.817
133.440 4.900 25.824
133.450 4.670 40.513
133.700 4.670 43.356
133.800 4.150 31.113
133.830 3.920 33.226
133.850 4.090 43.649
133.860 4.290 39.725
133.870 4.390 44.307
133.880 4.250 44.174
133.890 4.140 42.936
133.900 4.510 29.886
133.930 4.260 35.378
133.940 4.620 27.328
133.950 4.770 36.623
137.360 4.080 42.541
137.370 4.980 30.227
137.380 4.910 42.486
137.460 4.670 44.781
137.470 4.250 43.558
137.510 4.430 39.426
137.550 4.320 38.126
137.580 4.570 34.668
137.600 4.740 37.981
137.630 4.340 35.196
137.720 4.420 33.360
137.780 4.740 36.416
137.800 4.910 38.545
137.850 4.870 40.873
137.860 4.380 37.082
137.870 4.220 31.942
137.880 4.930 43.975
137.930 4.190 43.114
137.940 4.640 35.179
137.970 4.310 38.699
138.100 4.610 39.032
138.140 4.770 41.066
138.200 4.510 43.912
138.220 4.400 37.337
138.250 4.950 36.825
138.260 4.650 44.273
138.270 4.170 31.104
138.280 4.560 29.257
138.290 4.610 35.066
138.300 4.200 43.694
138.330 4.180 44.754
138.400 4.240 17.996
138.420 4.870 36.982
138.440 4.520 37.026
138.450 4.390 42.742
138.460 4.440 42.374
138.470 4.280 37.134
138.480 4.700 25.067
138.500 4.510 42.269
138.520 4.860 38.031
138.530 4.870 37.166
138.570 4.090 19.215
138.580 4.700 36.709
138.600 4.830 36.587
138.620 4.370 42.646
138.630 4.260 41.048
138.660 4.510 27.145
138.670 4.690 32.311
138.680 4.220 38.252
138.700 4.270 31.151
138.760 4.210 42.166
138.770 4.190 42.122
138.780 4.510 20.901
138.800 4.080 37.476
138.810 4.130 34.088
138.830 3.940 39.147
138.860 4.880 17.580
138.930 4.890 37.651
138.970 4.800 30.435
139.000 4.910 40.065
139.010 4.750 26.517
139.070 4.610 22.439
139.090 4.700 43.651
139.100 4.300 43.719
139.130 4.330 31.896
139.140 4.750 29.850
139.150 4.360 37.425
139.160 4.670 31.674
139.180 4.990 38.650
139.190 4.980 17.209
139.200 4.130 30.120
139.210 4.590 29.194
139.220 4.310 39.376
139.250 3.980 36.497
139.280 4.120 43.372
139.290 4.110 35.691
139.300 4.660 35.061
139.310 4.290 34.308
139.320 4.550 38.067
139.330 4.340 37.810
139.340 4.300 20.997
139.360 4.240 42.081
139.490 4.660 40.531
139.500 4.890 24.778
139.520 4.400 31.853
139.540 4.920 31.766
139.560 4.580 38.341
139.580 4.140 34.103
139.590 4.300 32.327
139.620 4.720 44.803
139.630 4.230 37.698
139.640 4.230 27.874
139.660 4.090 35.536
139.680 4.330 41.268
139.700 4.290 43.555
139.720 4.570 42.448
139.750 4.440 42.584
139.770 4.190 22.607
139.780 4.570 43.501
139.790 3.870 29.911
139.850 4.710 41.767
139.870 4.420 42.200
139.880 4.830 29.626
139.910 4.740 41.014
139.920 4.450 35.443
139.980 4.830 41.982
140.060 4.930 31.043
140.170 4.210 41.659
140.180 4.590 44.920
140.200 4.800 14.424
140.210 4.170 37.369
140.230 4.330 40.654
140.250 4.720 33.084
140.260 4.380 30.254
140.270 4.020 37.014
140.280 4.320 39.183
140.290 4.350 26.570
140.390 4.970 21.351
140.400 4.400 33.132
140.410 4.690 33.088
140.470 4.310 35.597
140.480 4.460 43.982
140.490 4.070 36.946
140.500 4.570 40.206
140.520 4.420 44.821
140.530 4.620 38.461
140.550 4.190 39.934
140.560 4.480 13.636
140.570 4.240 41.297
140.580 4.220 34.866
140.610 4.910 26.954
140.620 4.380 41.854
140.630 4.200 40.133
140.640 4.480 30.548
140.650 4.140 41.024
140.660 4.010 38.952
140.670 4.070 41.865
140.680 4.140 35.782
140.700 4.410 28.962
140.740 4.580 25.120
140.750 4.370 33.926
140.790 4.860 29.416
140.820 4.930 32.072
140.850 4.650 41.977
140.860 4.760 17.381
140.890 4.050 41.383
140.900 4.330 42.494
140.910 4.560 37.191
140.930 4.400 43.937
140.940 4.970 40.297
140.980 4.400 27.441
141.000 4.090 38.889
141.010 3.940 35.749
141.020 4.230 44.578
141.030 4.280 31.124
141.040 4.250 36.705
141.050 4.420 29.643
141.070 4.640 32.101
141.080 4.480 26.956
141.090 3.940 38.825
141.100 4.060 35.033
141.110 4.490 27.260
141.120 4.920 23.822
141.130 4.380 43.304
141.150 4.710 32.825
141.160 4.320 39.964
141.180 4.360 30.596
141.190 4.220 33.206
141.210 4.150 25.732
141.220 4.550 44.175
141.250 4.130 37.166
141.260 4.300 38.724
141.270 4.240 36.830
141.290 4.840 43.841
141.300 4.370 43.600
141.330 4.400 35.300
141.340 4.310 34.784
141.360 4.930 44.710
141.390 4.810 28.239
141.440 4.400 34.927
141.450 4.110 30.235
141.460 4.830 28.724
141.470 4.270 41.261
141.510 4.790 44.823
141.660 4.740 43.511
141.800 4.650 25.901
142.020 4.710 35.709
142.040 4.270 30.616
142.050 4.560 37.189
142.060 4.530 40.952
142.070 4.250 44.469
142.080 4.880 26.138
142.090 4.800 36.342
142.100 4.500 32.016
142.110 4.270 26.172
142.140 4.780 27.700
142.170 4.050 28.932
142.260 4.830 25.392
142.270 4.320 30.571
142.280 4.100 44.386
142.290 4.640 36.368
142.320 4.650 27.857
142.360 4.730 42.877
142.370 4.510 37.701
142.380 4.490 19.403
142.390 4.360 39.385
142.410 4.360 19.311
142.420 4.410 26.042
142.430 4.570 43.503
142.440 4.890 19.445
142.450 4.200 30.649
142.460 4.190 36.259
142.500 4.340 37.474
142.510 4.950 26.865
142.530 4.470 26.950
142.540 4.510 33.436
142.550 4.730 33.377
142.730 4.680 33.562
142.890 4.460 33.999
142.900 4.720 43.205
142.910 4.350 43.340
143.070 4.310 42.264
143.090 4.560 33.594
143.110 4.950 43.159
143.180 4.540 34.794
143.190 4.360 26.857
143.200 4.730 26.485
143.230 4.190 42.297
143.250 4.810 17.453
143.260 4.340 30.222
143.270 4.240 30.190
143.290 4.350 38.118
143.710 4.920 43.310
143.830 4.950 38.460
143.980 4.670 42.177
144.000 4.840 34.698
144.020 4.090 27.859
144.070 4.570 13.112
144.100 4.270 33.042
144.110 4.080 35.616
144.130 4.590 32.327
144.140 4.270 32.041
144.150 4.330 38.643
144.160 4.610 42.033
144.180 4.440 39.473
144.200 4.170 26.935
144.210 4.250 26.891
144.220 4.180 38.732
144.230 4.730 36.791
144.240 4.240 38.363
144.250 4.340 39.442
144.270 4.180 36.251
144.280 4.150 40.981
144.310 4.900 24.139
144.320 4.330 43.015
144.330 4.450 30.685
144.360 4.390 41.632
144.370 4.920 33.928
144.380 4.390 22.519
144.390 4.370 31.551
144.400 4.270 31.954
144.410 4.700 26.255
144.420 4.790 33.156
144.430 4.300 39.482
144.440 4.400 17.279
144.500 4.840 29.527
144.530 4.660 44.203
145.110 4.770 39.207
145.130 4.010 43.777
145.150 4.150 27.375
145.160 4.680 36.950
145.170 4.130 22.866
145.200 4.330 32.116
145.220 4.430 28.565
145.250 4.190 34.913
145.270 4.050 40.186
145.290 4.880 18.082
145.340 4.620 42.575
145.470 4.240 38.266
145.510 4.510 29.744
145.550 4.310 31.255
145.570 4.750 38.829
145.590 4.340 35.212
145.610 4.470 28.953
145.630 4.680 33.902
145.640 3.980 37.617
145.660 4.180 30.553
145.680 4.460 42.862
145.690 4.420 29.999
145.710 4.640 35.842
145.720 4.930 42.286
145.730 4.410 38.317
145.770 4.430 39.031
145.790 4.360 41.786
146.060 4.040 35.752
146.070 4.520 43.962
146.080 4.820 34.073
146.090 4.660 39.008
146.100 4.780 14.906
146.110 4.350 44.644
146.220 4.970 30.790
146.330 4.990 24.710
146.360 4.430 41.415
146.380 4.400 27.722
146.400 4.320 24.244
146.420 4.660 28.727
146.430 4.580 30.491
146.440 4.580 25.395
146.450 4.470 19.746
146.460 4.530 31.253
146.470 4.780 21.346
146.490 4.360 31.917
146.500 4.490 35.106
146.570 4.500 36.609
146.590 4.370 40.044
146.600 4.310 35.787
146.610 4.580 18.419
146.630 4.700 19.026
146.700 4.000 37.160
146.710 4.500 37.352
146.720 4.750 39.140
146.740 4.180 39.757
146.750 4.130 37.643
146.760 4.120 44.396
146.770 4.600 35.664
146.780 4.490 32.236
146.810 4.420 42.256
146.830 4.430 30.480
146.840 4.360 39.586
146.850 4.850 39.856
146.910 4.490 40.591
146.920 4.160 25.215
146.930 4.920 44.994
146.940 4.780 39.049
146.950 4.090 21.990
146.960 4.510 43.978
146.970 4.630 27.087
147.010 3.920 40.494
147.030 4.960 44.282
147.040 4.340 31.251
147.050 4.660 40.583
147.060 4.510 28.059
147.120 4.600 40.304
147.270 4.970 28.742
147.280 4.550 40.220
147.290 4.670 33.717
147.300 4.430 42.497
147.310 4.570 33.340
147.320 4.030 30.351
147.330 4.550 40.857
147.340 4.160 31.776
147.350 4.270 28.591
147.360 4.400 38.825
147.380 4.390 40.914
147.400 4.290 33.522
147.410 4.450 36.261
147.420 4.220 34.665
147.430 4.490 33.528
147.440 4.520 26.984
147.460 4.160 39.660
147.470 4.350 29.196
147.500 4.410 31.477
147.510 4.020 24.833
147.520 4.140 32.253
147.530 4.860 36.787
147.550 4.480 36.961
147.560 4.870 35.485
147.570 4.280 40.891
147.580 4.750 27.171
147.590 4.460 29.216
147.600 4.380 29.575
147.610 4.080 37.665
147.620 4.660 32.731
147.630 4.400 27.453
147.650 4.770 28.965
147.710 4.840 36.284
147.740 4.500 34.081
147.810 4.240 33.587
147.820 4.050 44.467
147.830 4.330 36.877
147.840 4.950 39.910
147.850 4.590 39.403
147.870 4.120 28.929
147.920 4.090 39.112
147.930 4.640 40.239
147.940 4.800 17.599
147.950 4.370 33.638
147.960 4.960 29.859
147.970 4.480 35.675
147.990 4.580 22.768
148.010 4.220 29.871
148.020 4.490 40.565
148.030 4.980 39.923
148.070 4.970 34.831
148.260 4.770 21.963
148.280 4.510 25.792
148.320 4.560 26.125
148.330 4.060 26.443
148.340 4.220 14.196
148.450 4.440 37.613
148.470 4.230 37.436
148.480 4.130 17.480
148.500 4.160 36.720
148.510 3.940 33.886
148.520 3.870 13.824
148.540 4.730 43.102
148.550 3.870 36.503
148.560 4.210 22.976
148.570 4.520 15.035
148.590 4.830 42.157
148.600 3.900 27.423
148.610 4.160 40.051
148.620 4.690 25.781
148.700 4.040 44.968
149.230 4.430 38.059
149.260 4.590 31.031
149.310 4.610 31.586
149.320 4.890 35.593
149.440 4.380 38.275
149.480 4.690 41.762
149.550 4.280 22.335
149.560 4.120 26.240
149.580 4.140 31.472
149.590 4.390 39.060
149.600 4.840 30.864
149.610 4.250 42.008
149.640 4.420 32.199
149.660 4.320 40.485
149.670 4.780 31.968
149.700 4.300 37.926
149.730 4.440 37.198
149.750 4.940 13.616
149.760 4.060 31.104
149.770 4.710 30.700
149.780 4.880 39.375
149.820 4.110 40.474
149.860 4.430 33.355
149.870 4.190 42.380
149.880 4.890 41.535
149.890 4.130 33.148
149.910 4.870 18.623
158.530 4.110 35.417
158.550 4.110 44.121
158.560 4.630 26.156
158.570 4.100 33.159
158.600 4.390 41.547
158.710 4.290 37.982
158.720 4.400 35.650
158.740 4.690 36.942
158.760 4.510 38.540
158.780 3.890 33.409
158.790 4.790 38.170
158.800 4.610 28.255
158.810 4.970 42.081
158.820 4.610 42.077
158.840 4.200 34.973
158.860 4.180 40.315
158.870 4.540 32.743
158.890 4.490 33.914
158.900 4.720 40.404
158.910 4.370 39.774
158.920 4.160 42.203
158.930 4.270 37.491
158.950 4.250 41.333
158.960 4.070 41.756
158.970 3.910 43.287
158.980 4.080 41.229
158.990 4.340 41.766
159.000 4.360 29.633
159.010 4.250 39.579
159.020 4.280 42.488
159.030 4.390 24.823
159.040 4.520 36.460
159.050 4.190 34.851
159.090 4.720 34.429
159.100 4.030 35.927
159.110 4.170 35.188
159.120 4.000 43.427
159.130 4.210 30.928
159.140 4.320 23.209
159.150 4.470 20.628
159.170 4.200 44.040
159.180 4.640 36.853
159.190 4.570 33.248
159.200 4.130 41.534
159.210 4.420 43.688
159.220 4.780 35.633
159.230 4.650 20.305
159.540 4.960 34.331
159.800 4.710 36.259
159.860 4.120 15.177
159.920 4.200 19.865
159.930 4.670 32.737
159.940 4.850 29.023
159.950 4.340 0.691
159.960 4.700 17.128
159.970 4.150 11.774
160.780 4.300 34.926
160.830 4.800 36.316
247.440 4.880 30.633
248.870 3.720 16.897
248.880 4.130 28.342
248.900 4.090 21.576
249.530 4.140 42.462
249.550 4.180 32.400
249.570 4.190 37.569
249.580 4.220 34.532
249.590 4.460 28.741
249.610 4.860 26.339
249.630 3.880 37.429
249.640 4.220 35.198
249.650 4.980 27.063
249.680 3.940 22.961
249.690 4.270 37.716
249.710 4.720 30.240
249.740 4.980 42.574
249.750 4.270 38.124
249.760 4.850 39.484
249.770 4.460 24.618
249.780 4.560 24.140
249.790 4.370 33.122
249.820 4.290 40.504
249.830 4.400 18.734
249.840 4.240 19.947
249.850 4.410 41.703
249.860 4.370 23.277
249.870 4.110 37.347
249.920 4.470 41.503
249.950 4.030 35.727
249.970 4.020 39.929
249.990 3.850 36.795
250.010 4.010 37.533
250.020 4.620 26.411
250.040 4.080 35.566
250.050 4.870 19.637
250.060 4.380 42.899
250.140 4.310 32.357
250.150 4.350 30.566
250.170 4.100 37.342
250.190 4.080 34.409
250.200 4.530 25.853
250.220 4.870 36.116
250.230 4.150 37.997
250.240 4.750 31.747
250.290 4.510 31.726
250.300 4.980 44.370
250.320 4.950 43.146
250.330 4.370 35.967
250.360 4.360 38.654
250.380 4.230 38.095
250.400 4.920 24.246
250.410 4.180 25.346
250.440 4.470 34.396
250.450 3.930 33.639
250.470 4.320 36.503
250.490 4.600 44.304
252.290 4.550 40.534
252.300 4.540 37.712
252.310 4.180 32.072
252.320 3.970 40.944
252.330 4.190 44.322
252.350 4.390 29.874
252.360 4.120 32.399
252.370 3.880 41.356
252.380 3.750 30.661
252.400 4.430 38.275
252.410 3.940 42.475
252.420 4.230 16.616
252.430 4.210 36.736
252.440 3.920 29.282
252.450 4.130 31.802
252.480 4.140 15.217
252.490 4.210 42.858
252.500 4.500 34.353
252.510 3.950 37.021
252.520 4.520 28.399
252.530 4.480 42.840
252.550 4.400 42.519
252.560 4.090 37.889
252.570 3.950 38.122
252.590 4.580 40.323
252.620 4.050 26.244
252.670 4.270 40.862
252.680 3.840 32.077
252.690 3.930 34.495
252.700 4.420 42.013
252.710 4.560 21.114
252.720 4.060 34.614
252.730 4.270 28.885
252.740 4.120 43.247
252.750 4.710 32.115
252.760 4.260 40.169
252.770 4.170 16.393
252.790 4.170 30.770
252.800 4.140 21.575
252.860 4.270 36.863
252.900 3.990 22.432
252.920 3.790 40.103
252.930 4.270 43.476
252.940 4.280 38.046
252.950 4.430 36.452
253.010 4.090 33.153
253.020 4.530 35.921
253.040 4.010 28.017
253.060 4.430 34.639
253.080 4.560 29.980
253.090 3.980 44.532
253.110 4.230 35.031
253.120 4.900 32.636
253.160 4.570 27.734
253.170 4.260 34.039
253.220 4.280 35.942
253.240 4.420 29.214
253.270 4.310 31.344
253.280 4.600 38.417
253.330 4.390 26.287
253.750 4.340 43.593
253.760 4.520 38.128
253.770 4.570 35.157
253.780 4.200 37.362
253.790 4.280 40.456
253.820 4.590 43.107
253.830 4.210 41.812
253.840 4.730 21.407
253.850 4.560 30.940
253.870 4.450 44.739
253.880 4.880 24.610
253.890 4.080 33.338
253.900 4.460 18.679
253.920 4.420 32.303
253.930 3.970 40.812
253.960 4.580 38.345
253.980 4.960 25.791
254.000 4.150 40.044
254.020 4.500 34.214
254.030 4.430 34.634
254.040 4.200 39.590
254.050 4.620 43.896
254.080 4.620 35.903
254.090 4.660 38.762
254.100 4.730 30.596
254.120 4.290 37.819
254.130 4.520 30.843
254.140 4.320 28.800
254.150 4.270 26.377
254.160 3.970 44.266
254.170 4.350 29.942
254.190 4.370 38.635
254.210 4.490 38.932
254.250 4.580 43.488
254.260 4.200 39.305
254.280 4.600 40.187
254.320 4.940 41.610
254.330 4.180 41.613
254.340 4.640 31.757
254.350 4.180 42.635
254.360 4.770 28.848
254.390 4.670 27.370
254.410 4.450 35.804
254.420 4.600 41.103
254.430 4.870 38.378
254.440 4.270 37.800
254.450 4.980 33.027
254.460 3.970 34.012
254.470 4.790 15.306
254.490 4.280 24.912
254.500 3.830 32.797
254.540 4.420 37.610
254.570 4.200 26.973
254.600 4.370 36.543
254.640 4.460 34.779
254.650 4.700 19.930
254.690 4.320 31.787
254.700 4.070 35.046
254.710 4.630 31.892
254.720 4.310 42.160
254.730 4.170 37.304
254.740 4.090 41.453
254.750 4.160 44.787
254.760 3.970 38.156
254.780 4.180 36.122
254.800 4.200 32.223
254.810 4.120 42.096
254.820 4.880 38.638
254.830 4.200 41.852
254.840 4.220 41.260
254.850 4.360 40.417
254.870 4.170 31.411
254.880 4.490 41.954
254.900 4.770 39.491
254.910 4.040 34.387
254.920 4.800 38.138
254.930 4.620 21.749
254.940 4.420 24.405
254.960 4.690 40.363
256.890 3.820 33.987
256.900 4.030 28.421
256.910 4.290 40.486
256.950 4.600 27.096
256.970 4.510 35.773
256.980 4.940 39.118
256.990 4.910 33.364
257.000 4.130 24.539
257.010 4.150 43.042
257.020 4.540 36.423
257.030 4.770 17.167
257.040 4.600 34.174
257.050 4.300 33.015
257.060 4.230 22.593
257.070 4.660 29.375
257.080 4.780 36.312
257.140 4.170 41.695
257.150 4.160 40.358
257.160 4.520 37.818
257.230 4.620 44.163
257.240 4.730 33.113
257.300 4.620 41.681
257.310 4.150 35.558
257.320 4.560 39.553
257.350 4.540 44.077
257.360 4.660 39.422
257.370 4.490 37.448
257.380 4.070 41.910
257.400 4.670 44.006
257.420 4.450 33.445
257.430 4.840 44.301
257.450 4.520 38.673
257.470 4.420 37.455
257.490 4.370 42.314
257.510 4.760 20.588
257.520 4.590 42.455
257.530 4.080 40.186
257.540 4.490 40.105
257.560 4.010 44.516
257.570 4.230 29.003
257.590 4.190 35.189
257.600 4.130 43.403
257.610 4.610 15.545
257.620 4.070 33.276
257.630 4.330 41.192
257.640 4.560 22.372
257.660 4.440 31.120
257.690 4.080 31.341
257.700 4.230 36.575
257.710 3.830 39.563
257.720 4.420 32.502
257.730 3.910 43.507
257.740 4.930 27.043
257.750 4.040 43.743
257.760 4.540 22.181
257.770 4.000 31.535
257.800 4.150 36.214
257.810 4.010 26.527
257.820 4.230 41.212
257.840 4.150 36.755
257.850 4.150 31.062
257.860 4.030 37.488
257.890 4.380 38.845
257.900 4.200 34.315
257.910 4.300 33.441
257.920 4.460 36.882
257.930 4.670 26.706
257.950 4.520 28.874
257.970 4.650 33.026
257.980 4.620 36.638
258.000 4.150 42.840
258.010 4.030 35.368
258.020 4.000 35.726
258.040 4.260 43.367
258.050 4.170 35.988
258.060 4.790 40.636
258.080 4.130 21.940
258.130 4.800 24.844
258.150 4.850 42.929
258.160 3.970 34.336
258.170 4.470 27.308
258.180 4.230 35.177
258.190 4.060 39.568
258.200 4.190 40.686
258.210 4.430 43.645
258.220 4.560 42.854
258.230 4.790 25.822
258.240 4.300 34.805
258.280 4.150 37.289
258.290 3.820 19.988
258.300 4.910 34.974
258.320 4.210 43.547
258.330 4.350 38.933
258.340 4.420 35.270
258.350 4.240 25.425
258.370 4.270 39.235
258.380 4.440 44.244
258.390 4.190 29.764
258.400 4.290 40.138
258.410 4.410 29.846
258.420 4.340 40.032
258.430 4.660 37.659
258.440 4.250 40.057
258.450 4.330 38.830
258.470 4.210 38.348
258.480 4.640 37.845
258.500 4.630 32.077
258.520 4.050 21.728
258.530 4.150 44.337
258.550 4.510 32.491
258.560 4.170 39.868
258.590 4.840 32.301
258.600 4.270 39.738
258.610 4.210 33.869
258.620 4.060 28.278
258.630 4.160 37.191
258.640 4.910 29.676
258.650 4.520 40.209
258.670 4.460 37.073
258.680 3.920 33.151
258.690 4.080 40.840
258.700 4.320 34.077
258.710 4.050 40.300
258.720 4.100 31.710
258.740 4.360 31.328
258.760 4.490 33.542
258.780 4.160 41.031
258.790 4.690 32.269
258.800 4.550 34.844
258.810 4.030 41.093
258.820 3.990 30.739
258.830 4.490 39.986
258.840 4.120 34.050
258.850 4.220 33.827
258.860 4.210 39.497
258.870 4.380 28.399
258.940 4.390 42.252
258.950 3.940 41.075
258.970 4.140 43.942
258.980 4.400 40.824
258.990 4.190 35.847
259.000 4.440 30.274
259.020 4.560 42.201
259.030 4.120 35.351
259.040 4.670 35.471
259.050 4.260 34.471
259.060 4.300 34.853
259.070 4.840 29.350
259.100 4.270 32.822
259.110 4.740 28.009
259.120 4.520 33.541
259.130 4.900 31.335
259.140 4.960 38.175
259.150 4.530 24.247
259.160 4.130 44.956
259.180 4.490 40.835
259.200 4.390 30.945
259.210 4.700 30.906
259.220 4.640 21.585
259.240 4.050 39.246
259.250 4.240 37.179
259.260 4.840 35.631
259.290 4.590 30.102
259.300 4.450 38.419
259.310 4.580 44.021
259.320 4.620 27.263
259.360 4.580 23.553
259.370 4.890 42.808
259.400 4.580 36.981
259.410 4.560 43.678
259.440 4.390 33.890
259.570 3.880 35.549
259.580 4.020 42.368
259.590 4.380 36.274
259.610 4.590 33.526
259.620 4.150 34.803
259.630 4.440 38.312
259.700 4.550 43.557
259.710 4.200 33.959
259.720 4.380 36.812
259.730 4.470 35.034
259.770 4.430 41.685
259.800 4.370 27.121
259.820 4.170 29.979
259.830 4.110 39.812
259.840 4.480 44.838
259.950 4.400 35.250
259.970 4.690 33.026
259.990 4.890 38.789
260.050 4.670 40.659
260.060 4.890 38.892
260.090 4.530 38.173
260.160 4.850 37.783
260.180 4.700 35.830
260.200 4.980 17.352
260.230 4.690 32.407
260.250 4.760 25.666
260.270 4.660 34.798
260.320 4.650 37.577
260.330 4.470 35.564
260.340 4.280 43.203
260.350 4.490 42.947
260.380 4.410 27.547
260.390 4.100 37.357
260.400 4.720 37.381
260.410 4.130 40.053
260.420 4.660 24.739
260.440 4.330 33.848
260.450 4.630 25.739
260.460 4.440 42.721
260.500 4.410 29.057
260.550 4.540 32.299
261.000 4.190 15.489
261.010 4.210 21.372
261.040 3.910 20.027
261.050 3.930 25.168
261.060 4.360 19.716
261.070 4.050 36.920
261.080 4.030 29.869
261.090 4.460 36.743
261.110 4.620 40.013
261.130 4.130 44.665
261.160 4.290 27.813
261.170 4.170 39.713
261.320 4.060 21.707
261.330 4.210 17.083
261.340 3.760 15.360
261.360 4.160 23.097
261.380 4.520 33.357
261.400 4.140 39.082
261.420 3.830 24.699
261.440 3.830 32.634
261.450 4.180 29.447
261.470 4.080 10.777
261.480 4.070 28.760
261.490 4.820 24.538
261.500 4.080 29.807
261.520 4.410 34.065
261.530 4.300 35.248
261.540 4.500 38.758
261.550 4.000 41.702
261.570 4.290 41.873
261.580 4.080 22.132
261.630 4.440 34.679
261.910 4.440 31.712
261.950 4.310 44.112
261.980 4.470 42.302
261.990 4.230 44.722
262.000 4.360 31.973
262.020 4.290 43.919
262.070 4.150 41.606
262.080 4.410 31.053
262.090 4.390 41.475
262.110 4.710 42.077
262.150 4.620 33.084
262.270 4.980 34.764
262.360 4.660 41.337
262.460 4.360 43.341
262.500 4.350 37.145
262.540 4.460 32.765
262.550 4.890 24.004
262.570 4.200 37.491
262.580 4.270 17.412
262.590 4.200 11.364
262.610 3.950 20.818
262.620 4.230 41.724
262.630 4.910 40.005
262.640 4.240 32.823
262.650 3.730 24.660
262.700 4.120 37.645
262.710 4.830 34.710
262.720 4.610 26.915
262.740 4.280 29.744
262.750 4.260 38.452
262.760 4.480 31.384
262.770 4.170 41.198
262.780 3.950 33.642
262.790 4.150 32.137
262.800 3.740 44.217
262.810 4.080 40.161
262.860 4.660 35.662
262.870 4.220 38.381
262.880 4.500 41.896
262.900 4.190 40.374
262.920 4.550 39.668
262.960 4.030 35.037
262.970 3.820 34.034
263.010 4.260 31.838
263.020 4.490 37.985
263.040 4.720 42.153
263.060 4.650 35.136
263.110 4.450 17.492
263.150 3.960 42.418
263.180 4.060 30.787
263.190 4.250 32.582
263.200 4.800 44.566
263.260 4.330 20.285
263.310 4.200 28.224
263.340 4.540 37.870
263.350 4.910 18.796
263.360 4.420 35.583
263.370 4.060 36.706
263.410 4.260 27.993
263.430 4.240 27.507
263.440 4.400 28.435
263.450 4.340 38.244
263.460 4.890 29.690
263.470 4.230 40.563
263.490 4.140 38.951
263.500 4.440 37.677
263.520 4.290 42.497
263.550 4.370 38.124
263.560 4.350 28.349
263.570 3.870 33.445
263.580 4.530 27.182
263.610 4.600 40.815
263.620 4.400 25.495
263.630 4.510 41.581
263.640 4.480 25.214
263.660 4.180 41.224
263.670 4.160 22.312
263.680 4.650 35.026
263.690 4.400 33.067
263.700 4.570 30.769
263.710 4.370 15.979
263.720 4.150 40.179
263.730 4.450 31.370
263.740 4.230 35.368
263.760 4.320 28.941
263.770 4.530 24.688
263.810 4.230 42.890
263.820 4.240 36.862
263.850 4.240 28.284
263.860 4.480 40.726
263.870 4.040 32.476
263.880 4.100 31.044
263.900 4.180 37.121
263.940 3.950 43.374
263.950 4.220 39.007
263.970 4.710 17.874
263.990 4.240 42.805
264.000 4.500 28.930
264.010 4.680 22.467
264.030 4.670 37.070
264.050 4.450 18.995
264.070 4.070 43.676
264.080 4.160 34.732
264.100 4.630 35.383
264.130 4.290 44.787
264.150 4.120 36.575
264.160 3.900 34.650
264.210 4.690 40.364
264.220 4.200 33.657
264.250 4.120 39.117
264.260 4.480 20.633
264.270 3.910 44.367
264.310 4.950 28.241
264.350 4.650 43.736
264.360 4.750 26.061
264.370 3.830 34.995
264.380 4.350 41.143
264.390 3.920 42.025
264.430 4.490 29.747
264.450 4.560 36.149
264.460 4.730 38.006
264.480 4.710 34.810
264.510 4.670 19.371
264.530 4.470 17.842
264.540 4.160 34.908
264.550 4.360 12.644
264.560 4.430 36.108
264.580 3.940 19.477
264.590 4.260 39.642
264.600 4.110 35.477
264.610 4.490 36.146
264.640 4.850 38.807
264.650 4.600 31.224
264.670 3.760 39.722
264.680 4.400 39.943
264.720 4.230 30.895
264.730 4.000 41.265
264.740 4.120 39.913
264.750 3.950 41.062
264.760 4.370 36.174
264.780 4.660 28.296
264.790 4.590 36.052
264.800 4.060 38.544
264.810 4.170 32.524
264.820 4.630 35.697
264.840 4.620 31.623
264.850 4.630 39.656
264.860 4.920 22.104
264.870 4.740 40.741
264.880 4.310 44.161
264.890 4.580 32.075
264.900 4.340 37.556
264.920 4.610 34.298
264.930 4.760 38.525
264.940 4.440 38.936
264.950 4.560 36.551
264.960 4.360 27.592
264.990 4.680 40.088
265.000 4.150 39.950
265.010 4.180 40.544
265.020 4.280 35.986
265.060 4.500 44.014
265.070 4.620 32.273
265.080 4.440 37.553
265.100 4.160 40.612
265.110 4.200 33.069
265.120 3.850 31.001
265.130 4.240 39.470
265.140 4.210 40.294
265.150 4.190 34.428
265.180 4.560 32.493
265.190 4.480 32.366
265.200 4.290 34.942
265.210 3.940 32.941
265.260 4.330 44.534
265.270 4.200 29.854
265.290 4.290 32.213
265.300 4.220 34.585
265.310 4.830 32.281
265.340 4.770 34.592
265.360 4.680 37.121
265.370 4.350 28.896
265.380 4.820 23.320
265.390 4.360 44.075
265.400 4.200 43.232
265.440 4.680 16.572
265.470 4.350 41.449
265.490 4.780 33.419
265.520 3.710 34.941
265.530 4.320 38.646
265.540 4.490 27.888
265.550 4.090 41.257
265.560 4.230 36.687
265.580 4.540 44.522
265.590 4.510 41.159
265.610 4.440 33.326
265.620 4.250 31.495
265.630 4.660 20.144
265.680 4.760 21.014
265.690 4.350 30.883
265.710 4.940 37.805
265.730 4.390 39.582
265.740 4.150 38.589
265.770 4.720 32.184
265.860 4.490 26.947
265.890 4.440 44.291
265.900 4.510 43.954
265.910 4.910 37.673
265.920 4.070 31.659
265.930 4.340 44.825
265.940 4.380 28.104
265.950 4.480 41.501
265.960 4.200 27.631
265.970 4.510 31.634
265.980 4.310 42.107
265.990 4.200 20.730
266.010 4.690 28.451
266.040 4.660 38.321
266.050 4.650 32.499
266.060 4.720 42.987
266.090 4.650 43.785
266.100 4.600 41.621
266.110 4.380 38.049
266.130 4.280 40.689
266.140 4.200 30.758
266.160 4.500 37.566
266.170 4.060 39.233
266.180 4.110 31.782
266.200 4.100 42.761
266.210 4.300 32.175
266.220 4.120 40.304
266.240 4.820 40.396
266.260 4.360 23.664
266.300 4.180 34.761
266.310 4.700 35.847
266.320 4.730 26.185
266.330 4.180 41.434
266.350 4.390 35.955
266.360 4.190 40.077
266.370 4.300 39.983
266.380 4.090 37.873
266.390 4.390 41.492
266.440 4.860 40.065
266.460 4.070 37.639
266.470 4.390 29.917
266.480 4.430 24.381
266.490 4.490 29.957
266.500 4.200 34.578
266.510 4.400 32.798
266.530 4.510 34.885
266.540 4.510 26.400
266.550 4.310 36.031
266.590 4.250 20.989
266.600 4.300 39.327
266.610 4.100 29.551
266.620 4.640 32.912
266.630 4.060 30.011
266.660 3.990 40.718
266.670 4.870 42.837
266.690 4.850 25.677
266.700 4.200 42.087
266.720 4.310 40.853
266.800 4.270 39.548
266.810 4.670 22.832
266.830 4.870 21.413
266.840 4.310 38.139
266.850 4.180 31.708
266.860 4.260 28.629
266.870 4.410 35.996
266.880 4.240 30.422
266.890 4.720 30.317
266.900 4.220 34.276
266.910 4.540 43.594
266.920 4.660 30.352
266.930 4.220 40.602
266.940 4.850 22.159
266.950 4.550 38.432
266.960 4.190 27.846
266.970 4.310 41.104
267.010 4.210 15.253
267.020 4.630 39.230
267.070 4.560 40.981
267.110 4.590 12.976
267.240 4.690 41.409
267.250 4.640 19.657
267.260 4.350 39.694
267.280 4.230 36.119
267.290 4.530 37.749
267.300 4.460 35.098
267.320 4.690 32.379
267.330 4.460 41.020
267.340 4.930 31.254
267.350 4.490 29.657
267.360 4.480 32.831
267.370 4.450 25.054
267.380 4.560 33.752
267.390 4.620 31.733
267.410 4.660 39.757
267.430 4.510 43.635
267.440 4.700 24.687
267.470 4.250 39.455
267.480 4.350 44.236
267.490 4.890 41.098
267.510 4.810 42.508
267.520 4.510 31.112
267.550 4.580 34.165
267.560 4.210 33.893
267.570 4.550 41.193
267.600 4.080 43.709
267.610 4.180 29.148
267.620 4.220 38.312
267.640 4.830 34.409
267.680 4.520 39.057
267.710 4.020 35.164
267.720 4.120 35.455
267.740 4.160 30.812
267.750 4.720 38.974
267.760 4.520 42.467
267.770 4.120 28.543
267.780 4.460 42.849
267.790 4.400 18.383
267.810 4.500 35.537
267.820 4.850 33.993
267.830 4.030 27.248
267.840 4.910 33.293
267.870 4.430 39.769
267.880 4.400 33.323
267.900 4.590 40.892
267.910 4.420 13.321
267.920 4.800 30.115
267.930 4.550 40.831
270.220 4.260 19.182
270.240 4.610 41.988
270.270 4.430 21.099
270.280 4.300 31.033
270.290 4.390 36.217
270.300 4.490 32.872
270.310 4.670 27.745
270.320 4.250 39.583
270.330 4.180 30.682
270.340 4.040 39.954
270.350 4.120 43.882
270.360 4.450 28.848
270.370 4.090 44.184
270.400 4.470 40.072
270.430 4.380 39.705
270.440 4.320 40.398
270.450 4.150 35.276
270.460 3.880 38.333
270.470 3.930 35.636
270.480 4.770 5.721
270.500 4.120 34.606
270.510 4.210 39.912
270.520 3.960 38.077
270.530 4.420 39.876
270.540 4.150 36.737
270.550 4.750 30.313
270.560 4.330 27.244
270.590 4.040 32.904
270.630 4.350 15.840
270.650 4.330 16.868
270.670 4.050 34.108
270.680 3.990 43.454
270.690 4.330 30.122
270.710 4.700 42.902
