# time(ns) distance (A) angle (deg)
0.530 5.930 19.942
0.540 5.120 36.467
0.550 5.710 10.915
0.570 5.640 14.756
0.580 5.680 52.351
0.590 4.890 50.894
0.600 5.100 39.501
0.610 4.740 46.231
0.620 4.820 41.747
0.630 4.910 45.077
0.640 5.170 15.741
0.650 4.870 28.200
0.660 5.470 16.566
0.690 5.790 40.854
0.700 4.840 45.660
0.720 5.630 30.832
0.730 4.970 25.052
0.740 5.310 29.457
0.950 4.960 62.230
0.980 4.970 74.722
0.990 4.050 71.885
1.000 4.480 58.470
1.010 4.030 47.610
1.020 4.070 60.362
1.030 4.810 74.386
1.060 4.590 82.936
1.090 5.560 87.411
1.100 4.350 61.012
1.110 4.800 76.026
1.120 4.370 80.243
1.130 4.330 75.459
1.140 4.320 62.876
1.160 4.390 76.557
1.170 4.230 64.364
1.190 4.840 87.739
1.200 4.740 72.984
1.210 5.080 80.208
1.240 4.390 56.312
1.290 4.470 76.615
1.300 4.190 62.603
1.310 4.410 75.093
1.320 3.780 71.911
1.340 4.770 54.710
1.350 4.080 59.295
1.370 5.230 74.145
1.390 5.200 73.804
1.430 5.570 72.792
1.440 5.190 53.675
1.450 5.050 63.262
1.460 5.380 29.544
1.480 5.930 22.410
1.490 5.870 43.546
1.510 5.120 29.427
1.520 5.080 20.074
1.530 4.290 53.862
1.540 4.240 63.051
1.550 3.870 41.379
1.560 4.500 60.138
1.600 5.990 57.970
1.610 5.120 71.728
1.900 5.990 42.351
1.910 5.680 28.047
1.920 5.360 30.763
1.930 5.570 44.244
1.940 4.920 55.991
1.950 5.210 30.114
1.960 4.510 70.971
1.970 4.340 40.941
1.980 4.810 50.698
1.990 4.060 72.326
2.000 4.680 30.949
2.010 5.910 27.504
2.020 5.970 17.478
2.040 5.730 27.521
2.060 5.930 27.902
2.070 5.430 24.877
2.080 5.430 16.611
2.110 5.900 48.145
2.120 5.940 54.378
2.130 5.950 32.169
2.150 5.800 40.235
2.230 5.410 33.678
2.240 5.480 34.290
2.250 5.450 40.904
2.260 5.670 38.469
2.270 4.770 60.228
2.280 5.020 45.466
2.290 4.890 84.874
2.310 4.450 84.228
2.540 5.690 78.207
2.620 5.830 84.188
2.630 5.490 58.202
2.700 5.760 37.376
2.720 5.710 76.198
2.740 4.990 73.041
2.750 5.180 87.042
2.760 5.650 75.149
2.780 4.690 88.979
2.810 5.890 86.363
2.840 5.010 89.141
2.850 5.030 85.613
2.950 4.840 85.860
2.980 5.000 70.953
2.990 4.400 87.005
3.010 4.190 80.939
3.030 5.270 89.322
3.040 4.240 86.687
3.260 4.330 79.381
3.270 5.100 85.927
3.310 5.750 89.874
3.460 5.110 75.653
3.480 4.960 88.462
3.530 4.790 81.591
3.540 4.670 66.426
3.560 4.700 69.550
3.570 4.760 62.161
3.590 4.610 84.928
3.600 4.720 66.573
3.610 4.740 72.802
3.620 4.790 82.674
3.630 4.840 78.527
3.640 4.500 84.741
3.650 4.810 83.061
3.660 4.610 87.549
3.670 4.730 82.007
3.680 4.990 77.464
3.690 4.600 80.398
3.700 4.810 87.955
3.710 4.500 62.591
3.720 4.210 31.761
3.730 4.740 79.241
3.740 4.560 67.466
3.770 4.670 77.027
3.780 4.580 79.556
3.790 4.490 63.032
3.800 4.420 74.462
3.900 5.780 82.215
4.220 5.540 47.998
4.230 5.590 82.450
4.240 5.380 86.285
19.730 5.890 79.875
19.990 5.550 78.224
20.000 6.000 76.524
20.010 5.380 86.324
20.260 5.820 76.385
20.270 5.630 82.320
20.290 5.950 72.475
20.820 5.300 78.574
20.840 5.590 72.088
20.870 5.780 83.376
20.880 5.620 82.148
20.890 5.680 80.141
20.900 5.750 78.831
20.950 4.920 46.492
21.150 5.620 52.850
21.160 5.810 38.805
21.830 5.960 71.918
21.850 5.920 56.631
21.860 5.490 74.621
21.960 5.900 79.651
21.990 5.900 85.718
22.000 5.420 85.638
22.030 5.740 60.159
22.050 5.310 57.429
22.460 5.890 82.888
22.550 5.990 89.888
22.590 5.140 43.249
22.610 5.120 82.297
22.620 4.130 42.098
22.630 4.030 68.018
22.640 3.820 88.469
22.660 4.460 83.638
22.670 4.700 80.428
22.680 5.010 74.798
22.700 5.320 73.851
22.710 5.750 67.852
22.720 5.270 80.060
22.730 4.840 52.643
22.740 5.060 65.032
22.750 4.810 83.340
22.770 4.930 68.499
22.780 4.300 50.698
22.790 4.720 76.707
22.800 4.170 72.815
22.810 4.400 75.960
22.890 5.070 62.107
22.900 5.070 70.888
22.920 5.340 87.132
22.930 4.750 81.431
22.940 4.880 65.020
22.950 4.660 70.880
22.960 5.160 87.969
22.970 5.700 87.899
23.010 5.570 87.843
23.020 4.840 82.513
23.030 4.640 84.052
23.040 4.900 87.279
23.050 4.260 80.531
23.060 4.920 67.058
23.070 4.470 79.700
23.080 5.290 87.461
23.090 5.050 75.543
23.100 4.240 63.687
23.110 4.480 48.174
23.120 4.630 80.825
23.140 4.500 66.477
23.200 4.850 54.730
23.210 4.200 64.002
23.220 4.820 71.313
23.230 5.320 82.903
23.240 5.160 84.091
23.260 4.530 64.172
23.270 4.010 49.998
23.280 4.270 87.787
23.290 3.930 69.105
23.300 4.400 69.118
23.310 4.410 81.658
23.320 4.220 53.651
23.330 4.330 56.035
23.340 4.230 50.374
23.350 4.230 67.768
23.360 4.300 85.036
23.370 4.470 85.196
23.380 4.570 80.272
23.440 4.650 77.995
23.460 5.590 87.774
23.510 4.200 63.219
23.520 4.260 59.978
23.530 3.970 59.893
23.540 3.730 64.487
23.550 3.980 63.802
23.560 4.100 67.173
23.570 4.200 60.352
23.580 4.560 84.666
23.590 4.430 65.155
23.600 4.180 63.518
23.610 4.890 42.617
23.620 4.660 52.659
23.630 4.510 67.155
23.640 3.910 64.623
23.660 4.390 73.935
23.670 4.710 79.161
23.680 4.080 63.229
23.690 4.630 88.125
23.710 5.060 70.953
23.720 4.910 85.289
23.730 3.690 69.260
23.740 4.460 50.605
23.760 4.280 65.931
23.780 4.430 74.125
23.790 5.070 85.991
23.800 5.340 60.839
23.810 4.150 51.830
23.820 4.100 62.814
23.830 3.930 65.960
23.840 4.750 73.287
23.850 4.140 74.450
23.860 4.540 46.389
23.870 4.570 80.002
23.880 4.360 73.559
23.890 4.850 88.994
23.900 4.070 54.902
23.910 4.080 86.613
23.920 4.340 47.997
23.930 5.100 70.217
23.940 4.120 65.600
23.950 4.290 76.004
23.960 4.410 43.566
23.980 5.090 53.440
23.990 5.490 50.497
24.000 4.560 60.158
24.010 4.490 42.360
24.020 4.390 68.344
24.030 4.140 47.849
24.040 4.570 62.931
24.050 4.880 58.134
24.060 4.630 34.341
24.070 4.310 44.353
24.080 4.700 64.716
24.090 4.860 59.897
24.100 4.200 62.059
24.120 4.600 67.636
24.130 5.460 48.012
24.430 5.710 69.763
24.450 5.410 77.936
24.470 5.450 82.502
24.490 5.640 73.693
24.560 5.080 87.009
24.570 4.760 70.476
24.640 4.140 77.049
24.730 4.680 89.499
24.790 5.700 70.644
24.830 4.970 83.726
24.850 5.260 84.355
24.900 5.740 68.825
24.910 4.550 53.958
24.920 5.340 73.035
24.930 5.060 83.310
24.950 5.450 84.157
24.960 4.730 83.395
24.970 4.970 85.770
24.980 4.700 82.031
24.990 4.160 40.929
25.000 4.320 77.637
25.010 4.270 81.129
25.020 4.140 85.974
25.050 4.340 65.473
25.070 4.620 63.974
25.080 5.410 31.062
25.090 4.820 49.969
25.100 4.610 49.636
25.110 4.280 65.519
25.120 3.940 81.037
25.140 4.060 57.387
25.150 4.610 70.892
25.160 4.560 59.858
25.170 5.020 86.564
25.190 4.730 74.099
25.200 5.010 41.375
25.210 5.470 89.669
25.220 4.830 88.167
25.230 4.450 63.087
25.240 4.370 88.550
25.250 4.280 71.958
25.260 4.410 74.890
25.270 3.960 58.474
25.280 4.320 82.534
25.290 3.680 76.221
25.300 4.610 35.440
25.310 4.040 40.145
25.320 4.590 46.543
25.330 4.040 46.475
25.340 4.160 63.259
25.350 4.610 59.929
25.360 4.900 67.090
25.370 4.850 84.346
25.390 4.650 79.441
25.410 4.590 46.190
25.420 5.550 24.295
25.430 5.690 17.746
25.440 4.550 43.759
25.450 4.460 62.851
25.460 4.570 68.600
25.470 4.210 80.041
25.480 4.900 79.250
25.490 5.010 80.324
25.510 4.830 71.765
25.520 4.270 83.974
25.530 4.520 65.523
25.540 4.090 50.121
25.550 5.040 82.368
25.560 4.280 52.577
25.570 4.680 61.079
25.580 4.100 70.933
25.590 4.010 63.647
25.610 4.720 59.527
25.620 4.530 57.830
25.630 5.000 73.347
25.640 4.940 88.079
25.680 5.840 68.374
25.690 4.750 75.816
25.700 4.010 77.314
25.710 4.580 71.846
25.720 4.390 63.327
25.730 4.660 88.567
25.740 4.520 72.486
25.750 3.790 81.897
25.760 5.640 82.905
25.770 4.050 52.405
25.780 4.030 88.877
25.790 4.260 68.148
25.810 5.150 77.184
25.820 5.330 76.000
25.830 5.050 54.501
25.840 4.990 87.058
25.850 4.800 73.420
25.860 4.900 80.930
25.900 4.800 80.893
25.910 4.540 60.515
25.920 5.440 73.978
25.940 5.600 84.669
25.950 4.700 89.830
25.970 4.360 80.820
26.000 4.920 21.511
26.010 4.790 45.569
26.020 5.390 57.748
26.030 5.020 30.159
26.040 4.300 59.858
26.050 4.390 54.690
26.060 4.760 60.694
26.070 4.350 59.669
26.080 4.780 33.902
26.090 4.300 47.021
26.110 4.370 89.803
26.120 5.570 55.606
26.130 3.870 77.724
26.140 4.370 43.860
26.150 4.060 41.311
26.160 3.980 62.789
26.170 4.320 44.850
26.180 5.190 56.626
26.190 4.570 56.604
26.200 4.660 87.391
26.220 4.120 73.422
26.230 4.310 87.551
26.240 4.340 41.967
26.250 4.680 44.877
26.260 4.610 68.768
26.270 4.220 67.250
26.280 4.320 67.794
26.290 5.330 86.866
26.380 4.810 76.999
26.390 4.250 57.926
26.400 4.150 63.008
26.410 4.630 70.205
26.420 4.440 35.935
26.430 4.630 62.358
26.440 4.050 84.092
26.450 3.880 70.478
26.460 4.330 69.847
26.470 4.370 36.477
26.480 3.700 87.585
26.600 4.290 75.548
26.610 4.390 59.482
26.650 3.950 87.290
26.680 4.480 84.261
26.760 4.500 84.256
26.870 4.930 82.478
26.880 4.930 89.196
27.330 5.650 89.756
27.810 5.770 61.181
27.860 5.750 82.404
27.870 5.640 83.680
27.880 5.440 89.769
27.910 5.610 74.063
27.920 5.150 74.621
27.950 5.710 87.137
27.980 5.280 81.860
27.990 5.880 66.165
28.000 5.500 73.947
28.010 5.370 77.914
28.020 5.880 89.685
28.060 5.690 69.462
28.070 5.660 57.367
28.090 4.340 77.180
28.130 3.870 84.956
28.150 3.990 82.787
28.200 5.160 86.831
28.240 4.570 86.100
28.330 4.670 84.725
28.340 5.600 81.984
28.360 4.880 87.538
28.400 5.200 89.592
28.420 4.580 87.767
28.440 5.560 73.385
28.450 4.170 84.540
28.460 3.770 80.733
28.470 4.380 73.433
28.480 4.530 87.734
28.490 5.090 85.788
28.510 5.600 88.150
28.540 4.810 87.213
28.550 5.310 84.911
28.560 5.070 85.715
28.610 5.120 84.101
28.640 4.550 87.633
28.700 4.660 85.589
28.710 4.360 88.065
28.720 5.920 88.411
28.730 5.850 83.670
28.740 5.440 89.154
28.770 5.920 68.334
28.780 5.910 73.377
28.800 4.910 85.821
28.850 5.940 65.942
28.860 5.760 62.481
28.880 5.600 81.050
28.890 5.410 80.300
28.900 5.440 70.952
28.930 5.160 75.971
29.000 5.850 78.669
29.010 5.270 84.367
29.050 4.980 89.542
29.100 5.140 80.040
29.150 5.480 66.265
29.160 5.490 60.109
29.170 5.080 82.922
29.180 5.330 85.499
29.190 5.630 86.116
29.200 4.870 74.223
29.210 4.670 84.102
29.230 5.840 69.135
29.270 5.040 89.062
29.300 5.480 76.669
29.310 5.770 77.762
29.520 5.860 83.208
29.540 5.050 89.935
29.550 5.020 77.528
29.690 5.420 82.126
29.700 4.790 89.157
29.720 4.980 84.925
29.820 5.040 85.368
29.860 4.670 69.733
29.890 4.770 76.801
29.900 4.580 87.673
29.920 5.490 70.556
29.980 4.750 80.501
29.990 4.810 82.757
30.050 5.400 87.843
30.060 5.360 74.757
30.070 4.660 57.426
30.080 4.970 88.817
30.090 4.490 54.148
30.100 4.810 67.846
30.110 4.700 80.723
30.120 4.390 67.005
30.150 4.890 89.611
30.220 4.950 81.622
30.260 5.070 80.677
30.300 4.560 75.148
30.310 5.040 82.837
30.320 4.640 72.190
30.330 4.450 41.086
30.340 4.860 67.042
30.350 5.600 87.857
30.360 4.370 57.739
30.370 4.900 80.782
30.380 4.610 50.003
30.390 4.690 61.169
30.400 5.140 86.919
30.410 4.660 60.274
30.420 4.090 55.531
30.430 4.150 51.711
30.440 4.400 62.100
30.450 5.310 44.199
30.460 5.410 57.786
30.470 4.870 74.079
30.480 3.730 72.696
30.500 4.270 46.302
30.510 4.350 68.284
30.520 4.110 70.309
30.530 4.040 59.833
30.540 4.160 59.288
30.550 4.550 77.965
30.570 5.160 79.964
30.590 5.210 82.046
30.620 3.880 58.288
30.630 3.970 73.531
30.640 5.020 80.641
30.650 3.940 70.425
30.660 4.740 42.932
30.670 5.320 82.917
30.680 5.260 71.854
30.690 4.330 84.747
30.700 4.830 89.664
30.740 4.670 67.202
31.020 5.800 85.877
31.030 4.270 57.794
31.040 4.490 82.324
31.050 5.390 77.913
31.060 4.930 86.198
31.120 4.890 34.840
31.130 4.640 54.769
31.140 4.340 38.512
31.150 5.210 59.183
31.160 4.040 62.772
31.170 4.210 53.239
31.180 4.260 51.761
31.190 4.540 74.710
31.210 4.530 71.892
31.220 5.290 83.739
31.230 4.660 79.520
31.240 4.320 55.646
31.250 4.300 41.917
31.260 5.200 35.955
31.270 5.130 34.022
31.280 4.810 62.968
31.310 4.230 51.214
31.320 4.690 71.759
31.360 5.330 54.652
31.370 5.380 46.916
31.380 5.060 28.088
31.390 4.180 76.403
31.400 3.940 57.274
31.410 4.110 61.216
31.420 4.340 64.117
31.430 3.880 53.539
31.440 4.920 56.365
31.450 5.140 36.050
31.460 4.980 80.270
31.470 4.320 82.853
31.480 4.290 54.422
31.490 4.210 53.924
31.500 4.110 62.279
31.510 4.620 58.822
31.530 4.740 33.007
31.540 4.320 69.775
31.550 4.710 37.354
31.560 4.440 60.200
31.570 4.190 84.707
31.580 4.560 65.983
31.590 4.370 46.189
31.600 4.220 70.828
31.620 4.380 50.467
31.630 4.590 36.659
31.640 4.420 85.202
31.650 5.390 67.479
31.660 4.520 62.353
31.670 5.130 45.893
31.680 4.900 57.949
31.690 4.860 54.428
31.700 4.220 60.040
31.710 4.380 57.673
31.720 4.260 64.830
31.730 4.270 31.471
31.740 4.790 55.864
31.750 4.670 85.054
31.760 4.970 84.065
31.770 4.450 55.074
31.790 4.810 41.467
31.800 4.290 83.500
31.810 4.310 50.521
31.820 5.100 49.704
31.830 5.330 75.210
31.840 4.470 60.731
31.850 3.880 50.511
31.860 5.010 58.000
31.870 5.310 52.958
31.880 4.540 43.940
31.890 5.450 20.100
31.900 5.260 66.362
31.910 4.900 57.817
31.920 4.920 11.273
31.930 5.400 52.975
31.940 4.760 43.408
31.950 4.530 44.674
31.960 4.150 56.977
31.970 4.450 73.050
31.980 4.620 72.768
31.990 5.120 52.905
32.000 4.550 62.600
32.010 4.250 49.947
32.020 4.280 68.144
32.030 4.870 88.748
32.040 4.620 76.905
32.050 4.580 56.117
32.060 4.460 47.151
32.070 4.560 56.412
32.080 4.130 68.082
32.090 4.920 50.781
32.100 4.110 73.197
32.110 4.330 58.760
32.120 4.830 71.429
32.130 4.700 61.444
32.140 4.810 65.309
32.150 4.620 42.290
32.160 4.190 51.217
32.170 3.960 57.724
32.180 4.050 61.211
32.190 3.970 48.192
32.200 3.790 64.789
32.210 4.500 49.966
32.220 4.150 70.700
32.230 4.540 81.574
32.250 4.290 66.603
32.270 4.100 56.451
32.280 4.350 65.162
32.290 4.240 65.864
32.310 4.130 75.066
32.320 4.160 80.204
32.330 4.720 74.904
32.340 3.970 60.348
32.350 4.730 63.538
32.360 4.680 82.370
32.370 4.540 60.101
32.380 4.970 61.786
32.390 4.160 76.237
32.400 4.340 88.957
32.410 4.980 78.578
32.420 5.280 86.224
32.470 5.110 85.865
32.490 4.760 68.786
32.510 4.950 80.618
32.520 4.980 83.864
32.530 4.520 46.993
32.540 4.000 58.262
32.550 4.440 52.320
32.560 4.620 61.638
32.570 5.880 59.844
32.590 4.990 71.891
32.600 4.250 63.359
32.610 4.590 89.605
32.630 5.440 82.125
32.650 4.790 65.065
32.660 4.630 40.610
32.670 4.490 49.533
32.680 4.620 38.623
32.690 4.550 77.827
32.700 4.400 61.611
32.710 4.530 78.460
32.720 4.110 41.477
32.730 4.210 48.650
32.740 4.560 76.361
32.750 4.410 77.408
32.760 4.730 84.559
32.770 4.300 53.081
32.780 4.940 77.902
32.800 4.580 50.823
32.810 4.460 73.597
32.820 4.450 76.906
32.830 4.030 74.524
32.850 4.620 83.897
32.880 4.350 69.931
32.890 4.470 88.653
32.930 4.870 88.783
32.940 4.570 75.488
32.960 4.100 77.581
33.010 4.180 72.100
33.040 4.850 40.974
33.050 4.470 69.974
33.070 4.170 83.730
33.080 4.060 82.996
33.090 5.090 72.182
33.100 4.370 88.519
33.110 3.910 75.387
33.140 4.920 82.465
33.150 4.710 86.425
33.160 5.330 71.130
33.210 4.420 83.390
33.300 5.030 58.081
33.350 4.250 74.510
33.420 4.080 86.429
33.430 4.220 86.754
33.440 4.160 86.524
33.450 4.680 44.508
33.490 4.450 73.695
33.500 5.210 85.688
33.510 4.360 73.246
33.580 4.530 80.978
33.620 4.500 86.463
33.680 4.480 80.160
33.690 4.290 80.567
33.800 4.110 68.140
33.860 5.270 29.248
33.870 4.600 76.677
33.880 5.050 59.647
33.890 4.010 67.300
33.900 3.650 76.433
33.910 3.770 54.682
33.920 4.730 65.145
33.930 4.580 58.847
33.940 5.340 33.261
33.950 5.280 9.588
33.960 4.830 52.165
33.970 5.600 32.679
33.980 5.130 25.331
34.000 5.680 32.798
34.010 5.190 72.425
34.100 5.770 88.425
34.110 4.820 75.034
34.120 4.560 63.159
34.150 4.990 72.324
34.160 3.890 69.317
34.170 4.640 86.033
34.180 5.190 78.791
34.200 4.960 79.806
34.210 4.710 64.392
34.220 4.550 79.363
34.230 4.450 71.619
34.240 4.560 74.594
34.250 5.000 62.769
34.270 4.800 63.970
34.280 4.780 89.156
34.290 4.690 49.426
34.300 4.280 73.961
34.310 4.280 84.157
34.320 4.720 74.322
34.330 4.410 71.952
34.340 4.400 59.113
34.350 3.990 78.077
34.360 4.870 64.360
34.390 4.850 65.690
34.400 4.940 50.050
34.410 4.280 74.768
34.420 4.100 73.761
34.430 4.210 63.345
34.440 4.210 78.498
34.450 4.170 77.985
34.460 4.040 75.935
34.470 4.550 73.909
34.480 4.860 75.788
34.500 4.570 74.227
34.510 4.140 72.405
34.530 4.200 63.955
34.550 4.300 63.485
34.570 4.230 79.021
34.580 3.720 80.039
34.590 4.250 79.115
34.600 4.190 69.410
34.610 4.500 59.031
34.620 4.340 67.558
34.630 4.680 78.856
34.640 4.310 47.579
34.690 5.360 81.238
34.700 5.020 62.637
34.730 4.730 87.286
34.740 5.310 86.593
34.770 4.490 75.730
34.780 4.890 69.986
34.790 4.610 68.742
34.850 5.150 63.672
34.860 4.560 74.162
34.870 4.580 85.176
34.880 4.350 89.256
34.900 4.330 53.453
34.910 4.410 58.403
34.920 4.170 50.693
34.930 4.360 45.988
34.940 4.610 54.280
34.950 4.430 71.104
34.960 4.380 54.488
34.970 4.390 74.564
34.980 4.340 69.094
34.990 4.580 68.358
35.000 5.490 71.433
35.020 4.020 69.169
35.030 4.040 65.403
35.040 4.250 62.191
35.050 4.440 84.161
35.060 4.290 66.304
35.070 4.270 53.976
35.080 4.160 41.186
35.090 4.300 43.236
35.100 4.330 63.385
35.110 4.130 73.244
35.130 4.360 65.170
35.140 4.510 46.510
35.150 4.380 42.872
35.160 4.610 44.614
35.170 4.330 59.653
35.180 4.120 46.423
35.190 3.950 53.350
35.200 3.870 65.657
35.210 4.260 57.013
35.220 4.170 53.259
35.230 4.430 40.561
35.240 4.370 66.575
35.250 4.550 86.986
35.260 4.420 54.651
35.270 4.290 64.451
35.280 4.570 53.611
35.290 4.700 53.869
35.300 4.320 49.734
35.310 5.180 78.952
35.320 4.800 61.248
35.330 4.760 25.877
35.340 4.830 37.478
35.350 4.280 34.841
35.360 4.370 41.479
35.370 4.480 56.832
35.380 4.610 44.196
35.390 4.700 47.963
35.400 4.120 56.222
35.410 4.360 65.779
35.420 4.690 45.635
35.430 4.770 47.646
35.440 4.090 51.411
35.450 4.420 51.846
35.460 4.530 56.065
35.470 4.620 50.469
35.480 4.110 52.663
35.490 4.710 56.159
35.500 4.110 47.929
35.510 4.130 63.561
35.520 4.270 65.744
35.530 5.360 55.165
35.540 4.550 59.489
35.550 4.050 68.368
35.560 4.090 51.529
35.570 4.240 56.173
35.580 4.230 61.633
35.590 4.260 68.999
35.600 4.280 48.172
35.610 3.960 70.404
35.620 4.800 60.605
35.630 4.320 42.505
35.640 4.240 58.067
35.650 4.280 36.227
35.660 3.990 64.470
35.670 4.280 53.760
35.680 4.920 82.011
35.690 5.500 49.965
35.700 4.720 42.956
35.710 5.530 52.010
35.720 5.380 53.134
35.730 5.050 47.033
35.740 4.430 77.978
35.760 4.330 72.554
35.770 4.990 35.520
35.780 4.380 42.054
35.790 4.580 45.275
35.800 4.550 51.712
35.810 4.220 50.811
35.820 3.960 60.099
35.830 4.350 57.527
35.840 4.460 80.002
35.850 4.650 70.719
35.860 4.830 59.817
35.870 4.900 79.077
35.880 5.090 69.302
35.890 4.880 61.538
35.900 4.430 81.549
35.910 4.140 60.491
35.930 5.470 89.593
35.990 5.010 89.678
36.060 5.370 84.531
36.080 4.500 73.042
36.440 5.860 48.687
37.270 5.400 75.724
37.300 4.610 85.722
37.310 4.800 45.989
37.320 4.910 42.472
37.330 4.900 88.418
37.460 5.910 88.078
37.470 5.080 83.909
37.590 4.630 89.075
37.600 4.410 77.731
37.640 4.800 83.786
37.670 4.620 73.040
37.680 4.660 84.747
37.690 4.890 89.993
37.700 4.850 75.472
37.710 5.160 81.122
37.730 4.700 70.385
37.790 4.540 78.025
37.800 4.710 77.234
37.810 4.710 75.976
37.820 4.610 79.476
37.830 4.770 77.665
37.840 4.790 85.467
37.920 4.290 80.636
37.930 5.080 88.289
37.940 5.690 89.053
37.960 5.940 80.155
37.980 5.010 84.416
37.990 4.860 86.140
38.000 4.810 82.476
38.050 4.540 86.478
38.060 5.140 66.285
38.070 5.030 66.678
38.130 5.200 86.665
38.140 5.400 70.590
38.180 5.370 77.051
38.200 5.110 69.663
38.210 4.520 83.920
38.230 5.070 89.319
38.240 4.100 87.649
38.280 5.060 84.861
38.290 6.000 52.001
38.310 4.680 85.150
38.350 5.340 72.999
38.360 4.710 84.305
38.370 4.680 84.760
38.420 4.390 88.954
38.430 4.740 76.814
38.440 4.830 74.668
38.450 4.900 79.490
38.460 4.890 68.106
38.480 4.760 85.592
38.490 4.770 85.087
38.500 4.660 89.319
38.510 4.680 88.141
38.520 5.150 62.054
38.530 4.940 83.458
38.540 5.570 76.903
38.550 5.360 69.015
38.560 5.460 65.316
38.570 4.800 72.313
38.580 4.910 68.295
38.590 4.730 83.891
38.620 4.850 77.794
38.630 5.460 82.858
38.650 4.450 89.102
38.670 4.640 87.425
38.680 4.830 55.190
38.690 5.100 89.365
38.700 4.750 75.587
38.710 5.350 67.683
38.720 5.550 86.970
38.730 5.030 79.085
38.750 4.870 62.750
38.760 4.900 73.186
38.790 5.070 87.756
38.800 5.390 77.142
38.810 5.470 82.362
38.820 4.330 84.144
38.830 5.340 61.659
38.840 5.700 72.408
38.850 4.720 77.912
38.860 4.430 85.758
38.870 4.620 78.566
38.880 4.730 68.257
38.890 5.480 67.761
38.900 5.240 59.951
38.910 5.080 66.441
38.920 5.390 61.811
38.930 5.850 78.641
38.940 5.440 75.518
38.960 5.690 86.510
38.970 4.360 87.645
39.360 4.250 89.303
39.380 4.790 84.067
39.420 4.910 80.726
39.460 3.870 88.551
39.480 3.980 87.729
39.540 3.720 86.470
39.560 3.930 79.528
39.670 4.870 82.521
39.720 5.660 82.991
39.830 3.980 88.443
40.240 5.580 87.238
40.270 5.190 84.438
40.340 3.640 87.923
40.350 3.890 88.746
40.540 4.460 86.720
40.680 4.060 57.005
40.690 4.030 50.323
40.700 3.940 56.431
40.710 4.050 69.361
40.720 4.640 86.398
40.730 4.310 76.810
40.750 4.010 63.529
40.780 5.120 87.649
40.990 5.420 69.024
41.000 5.340 52.216
41.020 5.850 64.305
41.030 5.050 44.612
41.040 5.090 42.646
41.060 5.220 71.553
41.070 4.500 59.492
41.080 5.010 78.703
41.090 4.550 86.544
41.100 4.290 74.670
41.110 4.470 75.001
41.130 4.700 56.115
41.140 4.630 57.589
41.150 4.290 66.052
41.160 4.700 67.147
41.190 4.980 89.019
41.200 4.620 77.876
41.210 3.960 64.818
41.220 4.480 65.472
41.230 3.810 49.920
41.240 5.250 59.189
41.250 3.800 65.765
41.260 4.920 74.813
41.270 4.320 58.597
41.280 4.110 58.438
41.290 4.500 52.806
41.300 5.570 71.054
41.320 4.540 80.052
41.330 4.670 77.725
41.340 4.720 76.960
41.350 4.720 71.631
41.370 4.550 59.190
41.380 4.330 57.221
41.390 4.500 50.792
41.400 4.840 79.080
41.420 4.600 86.993
41.430 4.860 82.844
41.440 4.850 53.689
41.450 4.560 82.713
41.460 4.970 70.296
41.470 4.260 68.286
41.480 4.080 65.108
41.490 4.420 72.031
41.500 4.410 39.886
41.570 5.560 70.963
41.580 4.810 76.421
41.590 4.070 71.546
41.600 4.530 68.604
41.610 4.540 29.158
41.620 4.610 52.271
41.630 4.430 37.345
41.640 4.310 63.371
41.650 4.970 75.528
41.670 4.560 89.017
41.700 3.910 59.510
41.710 4.650 62.671
41.720 4.490 78.286
41.740 5.200 89.725
41.750 4.710 48.243
41.760 4.590 78.167
41.770 4.650 75.176
41.780 4.890 64.353
41.790 4.800 60.035
41.800 5.880 81.252
41.830 5.080 57.916
41.900 4.800 67.987
41.910 5.240 74.296
41.920 4.940 81.085
41.930 4.850 87.973
41.940 4.830 79.737
41.950 4.860 82.809
42.020 5.050 73.197
42.030 4.610 67.566
42.040 5.120 86.097
42.060 4.910 86.481
42.080 4.620 79.180
42.090 5.180 89.449
42.110 4.450 58.185
42.130 4.110 78.222
42.150 4.080 77.322
42.160 3.740 77.058
42.170 4.180 64.207
42.180 4.260 72.997
42.190 3.770 74.005
42.200 4.190 66.432
42.210 4.690 60.397
42.220 4.670 49.936
42.230 5.610 88.995
42.240 5.660 89.248
42.250 5.450 80.885
42.270 5.030 85.933
42.280 4.540 48.445
42.290 5.150 58.606
42.300 4.560 57.554
42.310 3.870 69.002
42.320 4.630 83.994
42.330 4.900 63.219
42.340 4.750 77.249
42.350 5.130 87.497
42.380 5.500 79.033
42.410 5.820 88.140
42.420 5.900 83.577
42.670 5.130 74.884
42.790 5.840 73.904
42.810 5.310 67.157
42.840 6.000 89.823
42.860 4.700 74.509
42.920 4.690 63.841
42.980 4.810 54.549
42.990 4.550 80.748
43.000 4.490 64.217
43.010 4.770 69.836
43.020 4.610 52.369
43.030 4.100 49.827
43.040 4.800 47.332
43.050 3.960 67.065
43.060 4.310 60.553
43.070 4.740 64.690
43.080 4.410 68.653
43.090 5.130 67.094
43.100 4.580 56.580
43.110 4.930 46.294
43.120 4.640 44.619
43.140 4.370 41.510
43.150 4.480 50.031
43.160 4.490 57.393
43.170 4.080 59.240
43.180 5.000 77.413
43.190 4.720 79.128
43.200 4.420 66.971
43.210 5.570 51.102
43.220 4.500 62.170
43.250 4.490 72.730
43.260 4.440 47.713
43.270 4.640 62.765
43.280 4.150 65.548
43.290 4.340 77.268
43.300 4.800 79.429
43.310 4.380 53.446
43.320 4.850 54.273
43.330 4.460 52.766
43.340 4.770 61.045
43.350 4.170 53.635
43.360 4.780 67.719
43.370 4.530 60.231
43.380 4.050 75.708
43.390 5.390 50.671
43.430 5.450 82.986
43.570 4.080 55.040
43.580 4.810 43.181
43.590 3.850 64.718
43.600 4.300 64.530
43.610 4.520 34.788
43.620 4.190 46.406
43.630 4.130 71.902
43.680 5.690 83.697
43.690 5.130 73.855
43.700 5.320 89.892
43.730 5.490 82.310
43.790 5.950 74.585
43.850 5.900 64.504
43.870 4.870 89.935
44.120 4.860 84.568
44.140 5.710 70.012
44.160 5.160 88.646
44.240 5.880 89.049
44.640 4.780 88.847
44.870 5.550 80.182
44.880 5.430 82.915
45.000 5.330 75.078
45.010 5.270 88.703
45.070 5.250 66.403
45.080 5.720 75.018
45.090 5.360 70.637
45.130 4.630 89.594
45.140 4.500 77.002
45.180 5.040 78.295
45.190 5.470 57.235
45.200 5.020 26.337
45.260 5.570 76.833
45.280 4.650 82.110
45.290 4.670 82.550
45.300 4.600 77.974
45.310 4.630 85.408
45.320 4.410 88.351
45.340 5.420 73.877
45.350 5.020 65.228
45.360 4.480 86.595
45.370 4.560 79.687
45.380 4.520 79.738
45.390 5.280 59.283
45.400 5.650 71.107
45.410 5.360 53.336
45.420 5.520 51.792
45.430 4.840 71.894
45.440 5.670 31.927
45.450 5.520 64.198
45.460 5.200 17.651
45.480 5.570 27.462
45.490 5.270 34.666
45.500 4.980 54.741
45.510 4.810 32.696
45.520 4.480 70.102
45.530 5.080 40.747
45.540 5.090 53.868
45.580 4.450 81.475
45.610 4.720 80.601
45.630 4.420 78.790
45.640 4.270 86.159
45.660 5.070 59.665
45.690 4.100 83.348
45.730 4.360 85.144
45.740 4.950 79.478
45.780 3.860 84.679
45.790 4.500 78.740
45.810 4.750 71.815
45.820 4.880 77.539
45.840 4.870 78.290
45.850 4.960 89.394
45.860 4.690 59.385
45.870 4.750 85.263
45.890 5.030 58.702
45.900 4.770 55.186
45.960 5.250 83.920
46.060 4.390 89.044
46.090 4.500 74.873
46.120 4.310 85.696
46.350 3.940 85.277
46.480 4.890 78.222
46.550 4.350 89.777
46.690 5.030 79.062
46.850 3.940 86.787
46.970 4.830 87.415
46.990 4.330 88.146
47.020 5.560 38.748
47.050 4.840 83.318
47.060 5.110 71.756
47.070 5.950 68.964
47.470 4.080 84.827
47.630 4.280 82.805
47.700 4.250 74.524
47.790 4.680 89.736
47.810 4.650 81.043
47.840 4.460 75.158
47.850 4.700 76.662
47.860 4.730 73.936
47.880 5.170 87.444
47.890 5.650 66.849
47.900 5.070 73.930
47.940 4.680 54.898
47.950 4.460 83.337
47.960 4.300 89.315
47.970 4.250 87.959
48.020 4.140 85.909
48.060 5.130 60.731
48.070 5.630 65.136
48.080 5.270 76.557
48.100 4.660 56.994
48.110 4.740 89.159
48.120 5.390 83.135
48.130 5.160 80.379
48.140 4.280 86.598
48.150 5.040 67.118
48.190 4.370 85.980
48.210 4.410 75.161
48.220 4.410 71.802
48.340 4.400 60.029
48.350 4.910 80.651
48.370 4.040 69.087
48.380 4.260 60.520
48.390 4.140 87.430
48.400 4.210 47.225
48.410 4.160 69.356
48.420 4.980 32.601
48.430 4.710 50.838
48.440 4.650 40.482
48.450 4.640 58.371
48.460 4.610 38.264
48.470 4.330 54.164
48.480 4.110 60.016
48.490 3.750 64.537
48.500 3.940 63.830
48.550 4.590 86.735
48.560 4.590 80.657
48.630 3.860 85.175
48.640 4.620 69.650
48.650 4.550 67.740
48.660 4.500 85.241
48.670 5.190 76.621
48.690 4.490 74.761
48.700 4.360 83.947
48.710 3.960 77.888
48.720 4.260 74.579
48.730 4.530 55.705
48.740 4.470 36.309
48.750 4.130 70.800
48.760 4.290 85.485
48.770 4.280 53.754
48.780 4.180 61.191
48.790 4.400 53.169
48.800 4.130 84.470
48.810 4.760 36.806
48.820 4.120 54.996
48.830 4.140 50.004
48.840 4.340 71.595
48.850 4.170 53.567
48.860 4.770 86.886
48.870 4.570 67.218
48.880 4.530 68.206
48.890 3.840 75.215
48.900 4.590 47.073
48.910 4.810 36.051
48.920 4.000 67.867
48.930 4.480 35.015
48.940 3.910 67.658
48.950 4.550 53.274
48.960 4.520 51.456
48.970 4.260 69.219
48.980 4.620 52.771
48.990 4.740 35.327
49.000 4.970 63.618
49.010 4.470 61.040
49.020 4.210 64.602
49.030 4.450 58.621
49.040 4.240 82.516
49.050 4.360 71.276
49.060 4.170 33.471
49.070 4.860 34.529
49.080 5.270 66.448
49.090 4.890 65.000
49.100 3.970 69.939
49.110 4.200 72.059
49.120 4.330 65.609
49.160 4.620 56.126
49.170 3.860 50.288
49.180 4.650 67.548
49.190 4.940 24.999
49.200 4.400 43.482
49.210 4.330 49.893
49.220 4.230 50.506
49.230 5.530 60.264
49.240 4.920 46.008
49.250 5.270 56.768
49.260 4.320 47.184
49.270 4.350 71.585
49.280 4.110 56.568
49.290 4.610 82.849
49.310 5.410 88.752
49.330 4.330 66.185
49.340 4.430 89.518
49.350 4.590 66.732
49.360 5.120 58.556
49.370 5.180 87.605
49.380 4.400 47.050
49.390 4.060 71.545
49.400 4.380 74.110
49.410 4.580 38.493
49.420 4.370 30.170
49.430 4.200 37.203
49.440 5.300 50.004
49.450 4.280 71.976
49.460 4.220 59.946
49.470 4.680 57.135
49.480 4.840 35.104
49.490 4.500 28.636
49.500 4.560 31.057
49.510 4.610 48.492
49.520 4.670 62.420
49.530 4.180 57.580
49.540 4.740 59.010
49.550 4.720 55.018
49.560 4.310 39.661
49.570 4.180 32.448
49.580 4.540 55.620
49.590 3.890 71.970
49.600 4.430 50.327
49.610 4.150 50.795
49.620 4.800 36.112
49.630 5.200 66.853
49.640 4.370 30.997
49.650 4.590 65.293
49.660 4.810 56.702
49.670 4.330 82.508
49.680 4.110 79.160
49.690 5.090 88.404
49.700 4.190 66.113
49.710 4.790 82.350
49.720 4.010 36.072
49.730 4.220 40.257
49.740 4.060 59.226
49.750 4.390 64.881
49.760 4.850 66.726
49.770 4.400 42.438
49.780 4.530 56.343
49.790 4.310 52.446
49.800 4.830 37.286
49.810 4.590 50.023
49.820 4.720 62.436
49.830 4.110 63.832
49.840 4.390 49.603
49.850 5.390 69.853
49.860 4.670 42.498
49.870 4.870 75.750
49.880 4.690 62.770
49.890 4.680 52.574
49.900 4.160 60.919
49.910 4.590 43.729
49.920 5.370 54.802
49.930 5.320 51.795
49.940 5.350 24.246
49.950 5.730 4.955
49.960 5.580 18.857
49.970 5.150 41.499
49.980 5.530 40.185
49.990 5.530 44.060
50.010 5.830 2.265
50.050 5.910 6.136
50.070 5.410 22.786
50.090 5.880 30.152
50.100 5.240 30.503
50.110 5.810 59.621
50.120 5.260 55.161
50.130 5.810 72.749
50.150 5.010 73.788
50.160 5.540 71.898
50.170 4.900 80.262
50.180 4.400 39.504
50.190 4.290 49.632
50.200 4.470 55.555
50.210 4.410 59.469
50.220 4.570 59.472
50.230 5.490 36.574
50.240 4.680 34.281
50.250 4.050 53.740
50.260 4.190 75.824
50.270 4.610 55.196
50.280 4.390 46.552
50.290 4.590 51.221
50.300 4.800 56.111
50.310 4.290 51.192
50.320 4.640 65.218
50.330 3.830 69.911
50.340 4.970 64.133
50.350 4.340 66.540
50.360 3.930 83.690
50.420 4.680 82.847
50.430 4.580 58.497
50.440 5.170 45.232
50.450 5.760 88.738
50.460 4.990 81.226
50.470 4.620 69.820
50.480 4.220 77.799
50.490 4.530 74.569
50.500 4.090 53.195
50.510 4.300 66.018
50.520 4.490 50.863
50.620 4.940 81.734
50.670 5.680 82.334
50.700 4.880 87.737
50.750 5.660 82.860
50.770 5.470 60.520
50.900 5.900 72.304
50.940 5.370 70.049
50.950 5.700 78.245
51.010 4.520 77.843
51.020 5.220 62.128
51.030 4.540 58.893
51.100 4.670 69.185
51.110 5.020 87.292
51.120 4.560 88.877
51.170 4.860 75.477
51.180 4.530 59.579
51.190 5.290 62.744
51.200 4.490 42.415
51.210 4.190 66.210
51.220 4.380 46.118
51.230 5.060 73.252
51.240 4.570 63.067
51.250 4.890 29.563
51.260 4.370 63.187
51.270 4.100 75.126
51.280 4.370 47.990
51.290 4.510 41.221
51.300 4.960 72.771
51.310 5.190 76.578
51.320 4.170 69.435
51.330 4.770 63.482
51.340 4.960 72.776
51.350 4.230 66.938
51.360 4.730 89.626
51.370 4.360 72.045
51.380 4.780 63.148
51.390 4.220 71.807
51.400 4.340 44.909
51.410 4.840 84.541
51.420 4.720 79.824
51.430 4.500 38.617
51.440 4.140 78.030
51.450 4.710 76.358
51.460 5.610 65.105
51.470 4.350 46.298
51.480 4.210 47.615
51.500 4.760 49.203
51.510 4.490 63.001
51.520 4.700 78.783
51.540 4.160 60.191
51.550 4.900 67.279
51.560 5.460 71.981
51.570 4.760 59.793
51.580 4.550 71.686
51.590 5.830 81.711
51.600 5.700 84.889
51.610 4.570 62.725
51.620 5.520 88.492
51.630 5.420 71.655
51.640 4.770 50.984
51.650 4.610 67.615
51.660 5.220 82.832
51.670 5.000 77.769
51.680 4.690 64.115
51.690 4.810 42.508
51.700 4.900 79.670
51.710 4.510 81.641
51.720 4.160 80.546
51.730 4.340 47.549
51.740 4.230 53.963
51.750 5.340 69.749
51.760 4.690 73.665
51.770 4.650 69.361
51.780 4.750 52.164
51.790 4.910 64.772
51.800 4.950 65.564
51.810 4.660 77.048
51.820 4.220 65.193
51.830 3.980 61.451
51.840 4.120 59.086
51.850 4.140 64.995
51.860 4.790 88.433
51.870 4.400 75.223
51.880 5.110 75.722
51.890 4.270 82.035
51.900 4.670 59.022
51.910 4.600 65.467
51.920 4.660 57.434
51.930 3.980 71.891
51.940 4.610 50.635
51.960 4.090 75.388
51.970 4.470 76.564
51.980 4.330 59.892
51.990 4.300 67.894
52.000 4.430 81.770
52.030 3.980 69.633
52.040 4.880 80.179
52.070 4.770 85.424
52.080 5.420 84.909
52.090 4.960 74.607
52.100 4.620 76.199
52.110 5.410 76.741
52.120 4.600 71.218
52.130 4.310 59.805
52.150 5.550 88.075
52.200 5.240 68.155
52.230 5.080 75.929
52.310 4.520 59.936
52.320 4.610 68.764
52.330 4.510 78.219
52.340 4.980 66.138
52.350 4.160 73.057
52.360 4.140 77.589
52.370 4.220 86.372
52.380 3.890 67.293
52.390 4.580 66.584
52.440 5.270 80.857
52.460 4.880 71.472
52.570 4.640 78.024
52.580 4.500 73.363
52.630 5.660 83.773
52.640 5.060 58.557
52.650 4.770 44.371
52.660 5.450 50.458
52.670 4.090 58.444
52.680 4.500 42.611
52.690 3.850 56.124
52.700 4.100 55.756
52.720 4.670 88.166
52.730 5.020 77.564
52.740 4.320 60.075
52.770 5.550 86.826
52.790 4.290 75.709
52.800 3.950 81.193
52.820 4.880 76.575
52.840 5.580 88.244
52.850 5.680 84.316
52.920 5.410 84.076
52.940 4.760 83.367
52.950 4.470 66.807
52.960 5.190 77.696
52.990 5.460 85.462
53.000 4.220 71.491
53.020 4.620 66.882
53.030 4.240 68.113
53.040 4.950 81.940
53.050 5.280 49.580
53.060 5.210 39.285
53.070 5.280 57.500
53.080 5.350 60.328
53.090 5.110 48.172
53.100 5.410 59.376
53.110 4.150 63.918
53.120 4.120 49.227
53.140 5.060 53.799
53.150 4.580 88.589
53.160 4.840 88.543
53.180 4.100 30.669
53.190 4.180 71.693
53.200 4.350 74.521
53.210 3.850 78.566
53.220 4.220 77.806
53.230 4.300 50.715
53.240 4.480 89.945
53.250 4.520 70.272
53.260 5.060 86.109
53.300 5.750 87.485
53.310 5.380 79.455
53.320 5.250 86.240
53.580 5.270 85.439
53.590 4.970 89.613
53.680 5.480 65.817
53.750 5.800 67.116
53.900 4.790 88.401
53.960 5.390 71.703
53.980 5.270 84.481
54.080 5.730 88.218
54.150 5.930 82.817
54.170 5.100 86.693
54.190 5.610 76.113
54.560 5.830 74.585
54.610 4.380 51.671
54.620 4.650 47.981
54.630 4.550 68.224
54.640 3.880 72.242
54.650 4.330 64.588
54.660 4.540 77.725
54.670 3.860 53.546
54.680 3.850 73.104
54.700 4.130 58.153
54.710 4.330 40.003
54.720 4.340 74.906
54.730 4.170 78.516
54.740 4.640 83.110
54.750 5.290 82.645
54.760 4.500 84.057
54.770 4.240 63.977
54.820 5.700 88.539
54.970 5.950 83.123
54.980 5.810 83.579
55.050 5.460 86.688
55.060 4.740 87.396
55.100 4.840 79.817
55.110 5.080 78.675
55.170 5.580 88.331
55.180 5.110 66.000
55.190 5.800 31.473
55.250 5.120 89.444
55.260 5.260 88.152
55.270 5.620 81.010
55.330 5.860 68.462
55.370 5.800 58.838
55.410 5.400 88.881
55.680 5.340 80.549
55.700 5.230 85.772
55.720 5.490 69.246
55.730 5.790 27.102
55.770 4.350 68.726
55.790 5.260 66.336
55.800 5.050 72.584
55.820 4.310 73.165
56.110 5.920 84.674
56.220 4.300 32.462
56.230 4.600 64.317
56.240 4.690 44.642
56.250 4.450 47.543
56.260 4.160 77.850
56.270 4.450 81.697
56.280 4.480 88.594
56.290 4.420 70.197
56.300 3.800 67.132
56.310 4.180 31.131
56.320 4.080 72.442
56.330 4.070 74.714
56.350 4.230 39.982
56.360 4.240 70.770
56.380 4.400 71.510
56.390 5.140 86.739
56.410 3.900 77.565
56.420 3.920 85.191
56.430 4.180 79.017
56.440 4.760 15.461
56.450 4.410 67.014
56.460 3.760 69.226
56.470 3.940 69.394
56.480 4.210 58.409
56.490 4.620 64.954
56.500 4.660 87.266
56.510 4.270 60.065
56.520 4.360 66.681
56.550 4.750 19.878
56.560 5.390 15.327
56.570 5.210 62.220
56.630 5.390 80.373
56.640 4.490 82.517
56.650 5.560 80.703
57.750 5.680 76.985
57.790 4.860 85.149
57.800 5.230 75.354
57.810 5.430 72.264
57.820 5.310 78.473
57.860 4.850 80.305
57.870 5.010 79.576
57.880 4.910 86.238
57.890 5.340 89.301
57.910 5.220 75.016
57.920 4.730 82.729
57.940 5.580 78.267
57.950 4.560 77.291
57.970 5.450 85.481
57.980 5.100 84.452
57.990 4.940 83.004
58.000 5.740 74.487
58.020 5.560 83.197
58.050 4.550 88.529
58.060 5.510 70.293
58.070 4.880 77.534
58.080 5.360 66.833
58.100 5.400 86.983
58.160 5.110 77.316
58.210 5.190 83.408
58.600 4.620 81.020
58.790 4.700 73.997
58.840 5.900 73.414
59.050 4.380 86.188
59.090 4.560 83.991
59.150 4.630 80.936
59.160 4.940 84.684
59.170 4.600 87.231
59.270 4.990 87.320
59.280 3.820 72.510
59.290 3.850 71.897
59.300 4.580 62.259
59.350 4.650 72.677
59.400 5.870 78.618
59.440 4.580 73.192
59.470 5.430 87.691
59.530 5.670 89.932
59.540 4.040 58.170
59.550 5.150 54.118
59.560 4.430 74.744
59.580 5.100 77.590
59.590 5.090 88.211
59.600 3.980 75.536
59.610 4.190 67.454
59.620 3.960 63.167
59.640 4.320 63.654
59.650 4.140 57.057
59.700 5.170 87.559
59.720 5.990 78.780
59.760 5.650 88.173
59.770 5.230 72.945
59.780 4.410 83.221
59.790 4.310 43.345
59.800 5.300 77.965
59.810 4.140 68.382
59.820 4.310 75.524
59.830 4.020 51.146
60.010 5.280 81.583
60.050 5.810 61.176
60.060 4.530 85.666
60.100 5.450 83.167
60.110 5.400 88.883
60.120 5.390 85.294
60.130 5.730 86.960
60.140 5.630 66.115
60.180 4.930 87.893
60.210 5.110 76.597
60.400 4.690 56.859
60.410 4.860 46.967
60.420 4.540 47.385
60.430 4.280 72.650
60.440 4.310 74.677
60.450 4.200 54.773
60.460 4.350 50.234
60.470 5.550 87.100
60.480 4.680 84.092
60.560 4.490 74.636
60.570 5.120 72.397
60.590 5.550 88.031
60.620 4.540 83.472
60.630 3.990 67.082
60.640 4.280 57.174
60.650 4.670 66.987
60.820 5.350 69.648
61.000 4.440 71.971
61.040 4.390 77.749
61.050 4.130 78.782
61.060 4.050 58.716
61.070 4.340 61.215
61.090 4.430 77.674
61.100 4.960 74.445
61.110 4.370 30.950
61.120 4.190 69.945
61.130 4.700 80.160
61.520 4.610 89.000
61.530 5.670 43.412
63.250 5.730 82.059
63.270 5.890 62.070
63.920 5.340 44.029
63.930 4.570 80.806
63.970 4.530 55.722
63.990 4.610 40.661
64.010 3.990 81.481
64.030 4.220 75.765
64.040 4.490 78.088
64.050 4.090 79.806
64.060 4.340 72.411
64.070 4.540 45.181
64.080 4.650 73.750
64.120 4.610 45.368
64.130 5.780 69.485
64.150 4.620 86.852
64.170 4.620 89.065
64.190 4.440 87.315
64.230 4.650 78.391
64.250 4.060 83.829
64.280 4.730 88.180
64.300 4.480 84.594
64.310 4.310 80.992
64.330 4.860 86.593
64.340 4.610 77.672
64.350 5.520 31.782
64.360 4.460 47.706
64.370 4.140 56.431
64.380 4.730 83.588
64.390 4.690 81.051
64.400 4.540 85.708
64.460 5.050 42.782
64.470 4.280 84.448
64.480 4.630 80.328
64.520 4.690 88.499
64.530 4.740 75.233
64.570 4.230 84.818
64.580 4.630 81.788
64.590 4.960 80.703
64.600 4.370 84.324
64.610 4.480 76.303
64.620 4.620 86.200
64.640 4.460 86.171
64.650 4.530 60.262
64.660 4.850 66.948
64.680 4.670 76.742
64.690 4.850 80.247
64.700 4.490 86.000
64.710 4.220 82.052
64.720 4.870 84.497
64.760 5.600 74.989
64.840 4.200 85.321
64.870 4.770 84.117
64.880 4.660 89.711
64.890 4.460 89.699
64.900 4.210 83.717
64.910 4.040 81.683
64.920 4.400 47.235
64.930 4.330 64.035
64.940 5.830 52.906
65.110 4.930 84.609
65.130 4.650 77.415
65.150 4.910 86.138
65.160 4.770 79.840
65.290 4.720 46.096
65.320 4.460 82.833
65.330 4.440 84.577
65.340 4.750 71.886
65.370 4.680 82.121
65.400 4.710 84.914
65.450 4.800 50.937
65.460 4.760 84.774
65.480 4.660 81.035
65.490 4.110 86.934
65.550 4.630 66.837
65.610 5.070 65.864
65.660 4.460 88.188
65.700 4.620 30.303
65.720 4.800 45.742
65.730 4.530 81.496
65.740 4.630 74.448
65.750 4.560 44.753
67.280 5.940 88.564
67.330 5.860 89.016
67.340 5.750 82.946
67.350 5.120 57.774
67.360 4.740 83.271
67.370 4.330 67.636
67.380 4.490 87.559
67.390 4.830 67.231
67.400 4.400 60.559
67.410 4.110 62.582
67.420 5.100 66.038
67.430 4.110 50.712
67.440 4.990 65.632
67.450 4.820 86.133
67.460 4.660 84.934
67.470 4.220 68.092
67.480 4.270 65.282
67.500 5.130 65.526
67.510 4.830 73.098
67.520 4.460 62.206
67.530 4.220 68.055
67.540 4.200 59.123
67.550 4.290 80.316
67.560 4.450 29.803
67.570 4.030 57.386
67.580 4.360 49.266
67.590 4.070 55.335
67.600 4.290 44.596
67.610 4.300 35.225
67.620 3.990 42.348
67.630 4.420 49.290
67.640 4.710 47.005
67.650 4.420 54.656
67.660 4.310 67.457
67.670 5.010 58.005
67.680 4.400 41.533
67.690 4.000 59.885
67.700 4.020 75.597
67.710 3.950 77.941
67.720 4.280 34.438
67.730 4.460 38.799
67.740 4.440 28.695
67.750 4.030 70.187
67.760 3.770 74.325
67.770 4.140 64.707
67.780 4.110 61.391
67.790 4.010 48.973
67.800 4.020 50.666
67.810 4.170 56.932
67.820 4.390 48.635
67.830 4.120 45.645
67.840 4.060 35.219
67.850 4.380 40.590
67.860 4.810 43.118
67.870 4.120 51.843
67.880 4.140 51.970
67.890 4.630 64.283
67.900 4.250 62.255
67.910 4.050 81.907
67.920 4.360 59.191
67.930 4.900 89.287
67.950 4.950 79.752
67.970 5.640 81.656
67.980 5.270 79.018
68.010 4.440 88.636
68.020 4.630 70.589
68.060 5.650 85.597
68.070 4.680 85.050
68.080 4.950 77.368
68.090 4.550 78.077
68.100 4.540 73.762
68.110 4.610 80.217
68.140 4.900 68.547
68.200 4.430 78.282
68.210 4.710 73.997
68.230 4.470 80.336
68.240 4.350 77.396
68.250 4.730 64.586
68.260 4.550 86.973
68.270 4.480 88.638
68.290 4.320 63.159
68.320 5.620 81.293
68.340 5.060 86.739
68.370 4.800 84.289
68.380 5.200 75.691
68.390 4.470 69.627
68.400 4.810 79.071
68.410 4.870 82.520
68.420 4.640 79.647
68.430 4.630 68.599
68.440 4.880 84.062
68.450 5.000 64.134
68.460 4.760 89.603
68.480 5.030 86.476
68.490 4.910 87.506
68.500 4.460 75.544
68.510 4.840 80.029
68.520 4.800 75.534
68.530 4.920 71.769
68.540 5.160 76.737
68.560 5.060 82.832
68.700 5.690 78.913
68.740 5.050 79.115
68.750 4.760 67.708
68.760 4.760 69.865
68.770 4.590 88.290
68.780 4.620 57.779
68.790 4.630 57.019
68.800 4.830 72.979
68.810 4.240 56.865
68.820 5.480 83.777
68.830 4.520 74.576
68.840 4.300 70.005
68.870 5.580 86.292
68.880 4.770 65.128
68.900 4.350 69.439
68.910 4.300 61.890
68.920 4.540 87.658
68.930 4.700 85.897
68.940 4.670 77.259
68.960 3.910 87.011
68.990 4.860 47.530
69.000 4.680 88.168
69.010 4.300 72.933
69.050 5.020 89.057
69.070 5.800 78.510
69.080 5.080 83.267
69.090 4.890 76.041
69.100 4.390 77.379
69.110 4.320 71.319
69.120 4.050 68.905
69.130 4.530 67.837
69.150 4.340 72.418
69.180 4.270 73.026
69.190 4.730 63.165
69.210 5.090 85.289
69.230 5.010 72.510
69.250 4.680 85.439
69.290 4.250 63.460
69.320 5.220 86.272
69.330 5.260 83.021
69.340 5.310 79.810
69.350 6.000 73.753
69.380 4.550 86.538
69.480 4.510 85.510
69.580 5.730 78.795
69.590 5.040 84.332
69.620 5.320 68.599
69.640 4.850 84.755
69.670 5.670 88.209
69.710 5.450 87.898
70.040 4.500 64.377
70.050 4.890 72.345
70.120 4.850 80.291
70.130 4.730 60.274
70.140 4.730 74.938
70.150 5.050 87.162
70.460 5.830 87.202
70.620 5.700 85.607
70.630 5.630 85.297
71.710 5.730 38.698
71.720 5.330 27.912
71.730 5.420 72.940
72.040 5.510 58.044
72.050 5.320 77.010
72.060 5.520 76.995
72.070 5.180 61.812
72.080 4.110 44.022
72.090 4.560 37.088
72.100 4.850 19.227
72.110 4.430 49.487
72.120 5.100 32.097
72.130 4.330 55.398
72.140 4.450 61.920
72.150 4.460 81.106
72.160 4.960 59.515
72.170 4.320 78.286
72.180 4.520 60.825
72.190 4.330 75.184
72.210 4.030 51.846
72.220 4.120 53.890
72.230 4.960 47.524
72.240 4.520 58.276
72.250 4.150 32.508
72.260 4.290 55.968
72.270 4.640 71.009
72.280 4.780 62.322
72.290 4.430 85.745
72.300 4.440 72.106
72.310 4.750 80.723
72.320 4.300 75.317
72.340 4.550 80.965
72.380 4.810 77.462
72.390 4.710 85.928
72.410 4.130 69.238
72.420 4.480 58.944
72.430 4.830 88.715
72.440 4.650 77.165
72.450 5.030 81.052
72.460 4.680 76.479
72.470 4.220 88.829
72.480 4.360 69.409
72.490 4.600 89.862
72.500 4.580 71.493
72.510 4.260 57.578
72.520 4.440 77.380
72.530 4.250 86.468
72.540 4.440 82.617
72.550 4.520 88.005
72.560 4.240 77.498
72.570 4.360 73.493
72.580 4.330 72.051
72.590 4.230 78.644
72.600 4.220 79.238
72.610 4.420 37.350
72.620 4.300 51.420
72.630 4.220 45.036
72.640 4.040 52.236
72.650 4.110 61.994
72.660 4.060 49.133
72.670 4.370 58.518
72.680 4.140 48.195
72.690 4.330 48.217
72.710 4.230 77.394
72.720 4.210 79.743
72.730 4.190 82.124
72.740 4.370 73.076
72.770 4.440 80.649
72.820 5.520 60.840
72.840 4.150 88.193
72.880 4.550 73.054
72.890 5.280 64.133
72.900 4.820 49.129
103.270 4.770 87.058
103.330 4.950 77.888
103.340 4.970 85.078
103.390 5.310 68.688
103.400 4.900 84.865
103.460 5.450 67.032
103.520 4.960 81.034
103.770 4.610 89.040
103.820 3.890 72.628
103.870 4.040 70.471
103.910 4.650 86.162
104.000 4.960 84.627
104.130 4.330 89.524
104.190 5.970 64.228
104.220 4.190 81.002
104.240 4.400 68.307
104.250 4.180 81.324
104.270 4.180 89.497
104.280 3.800 88.420
104.350 4.840 87.746
104.390 5.000 81.041
104.440 4.680 82.249
104.490 5.390 56.164
104.530 4.300 89.858
104.640 4.610 86.987
104.670 4.730 40.955
104.680 4.750 68.227
104.700 4.330 89.010
104.710 5.310 56.107
104.720 5.040 84.598
104.780 4.620 84.749
104.800 4.490 72.653
104.960 4.760 80.657
105.190 4.400 84.469
105.200 5.020 82.869
105.220 5.030 82.438
105.230 4.270 80.708
105.270 3.850 85.134
105.480 5.910 76.484
105.510 5.830 85.930
105.520 5.850 80.026
105.600 5.170 68.912
105.620 5.530 86.584
105.670 5.910 80.841
105.680 5.880 74.293
105.710 5.990 72.382
105.720 5.880 71.124
105.790 5.100 86.906
105.930 5.160 80.987
106.000 4.940 89.021
106.040 5.400 67.172
106.050 4.820 89.186
106.110 4.240 88.877
106.150 4.580 66.736
106.160 4.580 85.124
106.300 4.820 87.611
106.380 4.990 83.627
106.490 4.520 54.232
106.580 4.220 72.456
106.590 4.560 60.975
106.600 4.450 62.554
106.610 4.460 88.805
106.620 4.230 54.934
106.630 4.340 54.149
106.640 4.290 74.957
106.650 4.090 54.650
106.660 3.990 64.137
106.670 3.790 79.724
106.680 4.450 55.681
106.690 4.510 57.429
106.700 4.620 78.066
106.710 3.970 66.127
106.720 4.170 77.751
106.740 4.040 43.939
106.750 4.690 88.255
107.100 5.060 83.098
107.150 4.100 89.401
107.160 4.390 76.511
107.420 5.480 69.811
107.520 4.430 89.362
107.850 5.910 47.859
108.250 5.280 87.954
108.280 5.380 87.620
108.330 4.890 83.272
108.390 4.660 80.428
108.980 5.970 80.435
108.990 5.230 76.841
109.040 5.290 57.787
109.060 5.150 69.863
109.080 4.450 83.280
109.100 4.190 84.045
109.120 4.440 76.155
109.150 4.430 77.382
109.190 3.920 59.592
109.250 5.170 61.194
109.260 4.820 88.522
109.290 4.030 85.126
109.320 3.990 87.319
109.360 4.480 84.074
109.420 4.130 82.739
109.430 3.720 74.845
109.470 3.890 89.049
109.500 4.260 80.414
109.530 5.150 85.419
109.540 5.090 89.928
109.600 4.730 89.177
109.620 4.380 83.174
109.630 3.860 83.369
109.650 4.620 87.824
109.670 5.450 84.768
109.680 4.680 84.232
109.880 5.570 84.043
109.930 4.090 77.931
109.940 3.850 81.010
109.950 4.250 85.888
109.980 4.560 77.005
110.020 4.030 76.168
110.040 4.240 88.260
110.070 4.260 85.053
110.090 3.770 86.760
110.130 5.390 70.638
110.140 4.930 83.418
110.150 4.320 79.957
110.180 4.000 88.704
110.220 4.460 87.685
110.280 3.820 83.947
110.320 4.440 75.417
110.350 5.550 59.774
110.400 4.290 77.922
110.410 4.160 83.802
110.440 4.150 76.606
110.460 4.090 81.883
110.490 4.570 82.359
110.510 5.390 39.707
110.560 4.790 61.826
110.600 4.230 79.179
110.650 4.930 84.227
110.690 5.360 83.820
110.700 5.040 85.183
110.760 5.080 71.194
110.810 4.000 87.521
110.840 4.260 82.281
110.860 4.390 89.959
110.890 4.020 80.798
110.940 4.960 88.412
111.040 4.130 89.071
111.080 4.130 76.991
111.110 3.810 81.028
111.140 4.870 87.278
111.150 4.670 81.085
111.160 5.220 68.735
111.250 4.060 83.433
111.280 5.310 65.645
111.310 4.900 87.528
111.440 4.060 87.684
111.450 4.220 80.226
111.510 4.380 84.597
111.530 4.300 70.541
111.570 4.250 78.201
111.580 4.920 78.184
111.620 3.910 84.131
111.630 4.670 79.665
111.660 4.070 89.685
111.670 4.070 86.021
111.720 4.340 89.151
111.750 4.100 83.548
111.760 5.120 75.147
111.770 4.680 52.243
112.840 4.310 79.714
112.850 5.690 79.209
112.870 5.600 86.916
112.920 5.360 89.411
113.230 5.150 60.187
113.390 4.730 86.994
113.560 4.090 87.069
113.600 4.960 87.009
113.620 4.920 74.472
113.640 4.370 76.415
113.670 5.350 80.209
113.700 4.810 87.426
113.710 5.420 88.617
113.780 4.260 70.705
113.790 3.940 66.976
113.810 4.420 48.810
113.820 4.550 69.256
113.840 4.150 49.030
113.850 4.530 78.337
113.890 4.190 86.233
113.900 4.180 57.578
113.910 4.110 58.207
113.920 4.260 63.986
113.930 4.860 67.970
113.940 4.350 46.722
113.950 3.980 50.831
113.960 3.930 85.245
113.970 4.240 63.697
113.980 4.560 21.853
113.990 4.330 69.572
114.000 4.220 73.749
114.010 4.960 53.965
114.020 4.540 79.042
114.030 3.950 51.227
114.040 4.220 39.666
114.050 4.330 38.406
114.060 3.810 67.315
114.070 4.750 71.532
114.080 4.110 49.491
114.100 4.500 42.713
114.110 4.620 85.963
114.210 4.050 81.189
114.350 4.240 50.505
114.360 4.080 86.340
114.460 4.430 88.123
114.600 4.090 82.850
114.640 4.390 87.593
114.650 4.460 68.353
114.660 4.750 84.095
114.680 4.280 88.528
114.710 4.840 62.576
114.770 4.640 88.272
114.880 5.130 75.640
114.960 4.670 79.955
114.970 4.680 84.320
115.100 3.870 75.138
115.130 4.150 85.049
115.140 4.350 76.575
115.150 4.920 54.942
115.160 5.460 89.371
115.180 4.370 86.510
115.220 4.840 84.658
115.320 4.350 85.877
115.340 4.520 89.480
115.370 4.770 71.342
115.380 4.390 89.272
115.600 4.840 87.984
115.610 4.300 80.377
115.740 5.440 84.978
115.770 4.380 76.834
115.780 4.300 83.878
115.980 4.570 87.739
116.140 4.550 88.831
116.150 3.900 89.581
116.260 5.050 88.344
116.280 4.660 79.760
116.290 5.870 76.427
116.320 4.850 82.764
116.330 4.200 79.723
116.350 4.380 83.388
116.400 4.280 81.350
116.460 4.460 89.823
116.470 4.910 83.938
116.480 5.020 57.428
116.490 5.210 73.552
116.540 4.100 71.696
116.600 4.310 85.074
116.640 4.430 78.417
116.650 4.190 59.462
116.670 4.430 85.434
116.720 4.010 84.747
116.730 4.330 84.283
116.740 4.130 83.799
116.750 4.740 83.694
116.760 4.220 80.651
116.770 4.580 33.947
116.780 4.400 66.379
116.820 3.890 89.315
116.870 5.880 79.762
116.930 4.900 88.597
116.940 5.230 86.457
116.990 4.510 62.676
117.040 4.880 55.687
117.080 5.790 76.192
117.090 5.900 77.593
117.100 5.650 87.665
117.130 5.880 78.649
117.220 5.800 75.061
117.330 4.330 87.862
117.400 4.760 84.548
117.450 4.420 84.180
117.470 5.520 78.972
117.540 4.410 85.192
117.570 5.190 88.262
117.580 5.290 87.959
117.620 4.200 71.472
117.630 4.360 83.121
117.690 5.620 86.001
117.700 5.730 84.763
117.780 5.870 79.432
117.990 4.800 83.521
118.010 5.510 83.511
118.040 5.200 89.064
118.100 4.400 86.071
118.130 4.430 78.835
118.140 3.950 76.850
118.150 4.170 89.417
118.160 4.850 85.743
118.260 4.450 82.533
118.290 4.560 89.181
118.300 4.010 83.263
118.340 4.350 79.716
118.370 5.340 78.016
118.470 4.110 84.922
118.520 4.080 84.246
118.590 4.590 82.393
118.640 5.900 63.051
118.650 5.570 76.232
118.660 4.950 89.549
118.700 4.350 84.660
118.710 4.860 87.695
118.720 5.690 82.325
118.780 4.200 86.912
118.790 4.600 85.748
118.900 5.130 87.731
118.910 4.510 85.555
118.930 3.920 84.043
118.980 4.120 89.761
119.000 4.110 89.626
119.020 4.920 59.139
119.030 4.880 80.258
119.050 5.140 84.247
119.110 5.560 79.916
119.120 5.160 73.345
119.130 5.370 75.487
119.140 4.830 86.122
119.410 4.640 88.502
119.450 4.580 85.962
119.460 4.870 81.617
119.500 4.470 87.275
119.510 4.750 72.085
119.550 4.810 72.302
119.560 4.680 82.150
119.570 4.360 78.978
119.580 5.040 58.665
119.640 5.050 78.480
119.650 4.910 82.596
119.700 5.330 83.890
119.780 5.640 51.308
119.850 4.640 66.176
119.860 4.700 81.880
119.920 4.650 63.703
119.930 4.620 64.464
119.950 4.860 60.635
119.960 4.200 85.654
119.970 4.620 87.226
120.020 5.030 76.822
120.160 4.600 83.335
120.200 3.680 76.119
120.210 4.450 61.339
120.220 4.270 76.710
120.240 4.940 89.687
120.260 4.450 87.438
120.270 4.100 79.257
120.380 5.070 63.006
120.400 5.330 77.770
120.430 5.270 86.427
120.480 5.420 74.639
120.500 4.870 78.743
120.550 4.340 89.442
120.560 4.300 83.084
120.570 5.580 79.112
120.590 5.060 81.852
120.620 4.770 89.162
120.630 4.970 78.768
120.740 5.460 83.411
120.760 4.780 78.097
120.780 4.780 75.481
120.790 5.810 82.064
120.810 5.460 87.190
121.030 4.840 81.319
121.040 4.470 81.711
121.080 4.670 84.357
121.090 4.560 89.891
121.220 4.210 86.594
121.270 4.740 69.628
121.340 4.790 81.720
121.360 4.800 67.068
121.490 4.530 86.327
121.530 3.700 83.162
121.550 3.990 77.227
121.560 3.910 79.854
121.570 3.700 87.449
121.600 4.140 80.069
121.610 3.990 84.502
121.770 4.400 88.511
121.840 5.780 84.504
124.680 5.950 68.494
124.840 4.470 86.006
124.850 4.830 89.117
124.900 4.270 82.283
124.910 4.310 83.514
124.990 4.930 62.026
125.000 5.210 61.353
125.010 5.360 70.832
125.020 4.850 83.080
125.070 3.630 87.829
125.110 4.410 86.814
125.140 4.470 87.653
125.180 5.050 84.701
125.250 4.470 64.280
125.280 4.530 76.509
125.290 4.600 87.437
125.400 5.180 85.376
125.410 4.260 88.029
125.430 4.500 81.412
125.440 4.930 77.877
125.460 4.320 79.741
125.470 4.190 88.794
125.490 4.870 82.822
125.600 4.620 88.748
125.630 4.390 86.029
125.660 4.040 78.411
125.680 4.930 86.434
125.690 5.200 89.389
125.710 4.750 80.841
125.720 4.030 88.916
125.730 4.610 65.264
125.740 5.680 69.820
125.750 5.020 83.553
125.820 5.910 79.635
125.880 4.550 87.218
125.920 4.670 76.628
125.930 4.200 85.518
125.940 4.220 79.831
125.970 3.810 76.608
125.980 5.410 68.913
126.000 4.680 66.804
126.150 6.000 82.634
126.200 3.710 82.255
126.220 4.110 83.969
126.230 4.580 80.450
126.240 4.960 72.059
126.250 4.730 81.544
126.300 4.260 80.223
126.310 4.160 85.135
126.320 4.700 77.020
126.330 4.360 86.275
126.340 3.820 89.792
126.350 3.750 85.482
126.370 3.820 89.983
126.400 4.080 79.308
126.480 5.560 80.698
142.410 5.940 21.890
142.420 5.920 36.791
148.200 5.710 74.712
148.290 5.180 87.411
148.320 4.250 85.648
148.350 5.220 76.576
148.390 4.430 86.070
148.430 4.580 83.474
148.440 4.180 87.435
148.500 4.470 76.980
148.570 5.290 73.758
148.580 4.370 84.132
148.640 4.330 86.792
148.720 4.370 78.254
148.750 4.860 88.326
148.850 4.680 88.808
148.890 4.520 81.512
148.900 4.960 85.105
148.930 3.670 83.262
148.970 5.970 75.915
148.990 3.960 88.243
149.000 4.310 80.865
149.070 4.240 83.471
149.130 4.680 75.070
149.140 4.630 84.833
149.170 3.630 85.342
149.190 4.700 82.303
149.260 4.870 88.950
149.320 4.580 73.416
149.330 6.000 68.923
149.400 4.190 88.876
149.410 4.180 72.936
149.420 3.900 83.353
149.570 5.760 82.857
149.580 4.000 87.244
149.620 5.160 89.034
149.630 4.370 84.946
149.640 5.150 87.613
149.650 5.200 75.286
149.670 4.450 86.238
149.700 5.110 79.920
149.720 4.140 75.039
149.730 4.210 82.290
149.780 5.160 82.709
149.820 3.990 72.275
149.830 4.680 77.234
149.860 3.620 86.710
149.950 4.210 84.822
149.960 4.050 83.027
149.980 5.140 89.456
150.050 4.900 86.438
150.070 4.530 80.018
150.100 5.290 85.228
150.170 5.500 77.229
150.180 4.450 81.055
150.190 5.010 77.265
150.220 4.610 79.574
150.240 5.030 66.880
150.270 5.700 88.327
150.280 4.650 78.079
150.340 5.750 87.182
150.410 5.760 85.060
150.430 4.170 68.958
150.530 5.850 81.364
150.580 4.620 69.316
150.590 4.920 74.394
150.600 4.310 51.480
150.610 6.000 82.204
150.660 4.640 84.031
150.670 5.190 46.459
150.680 4.820 56.451
150.690 5.560 35.804
150.700 5.150 51.143
150.710 4.200 75.721
150.720 4.410 55.422
150.730 5.300 56.304
150.740 4.380 32.135
150.750 5.200 52.868
150.770 4.080 73.331
150.780 4.550 24.449
150.830 5.530 80.005
150.870 5.250 81.920
150.910 5.320 88.520
150.950 4.340 79.720
150.970 4.330 48.986
150.980 4.750 60.365
150.990 4.510 65.819
151.000 5.050 80.130
151.010 4.320 55.451
151.020 4.720 62.935
151.030 5.140 83.178
151.040 5.980 64.904
151.050 5.620 77.282
151.060 5.240 77.353
151.070 5.050 69.502
151.080 5.290 82.678
151.090 4.320 75.750
151.100 4.940 65.606
151.180 5.260 89.427
151.240 4.380 69.656
151.260 5.000 88.735
151.270 4.840 80.547
151.280 4.300 70.398
151.290 4.490 72.227
151.300 4.060 67.194
151.310 4.400 41.952
151.330 5.240 47.698
151.340 4.630 60.130
151.350 5.030 70.867
151.400 5.190 87.023
151.420 5.980 75.278
151.460 4.960 85.046
151.470 4.210 58.295
151.480 4.100 69.334
151.500 4.570 65.026
151.510 4.880 77.732
151.520 4.420 63.482
151.530 5.090 73.962
151.560 4.730 35.792
151.570 4.360 61.683
151.580 4.530 61.899
151.590 4.950 68.349
151.600 5.140 73.262
151.610 5.190 74.696
151.620 4.500 75.933
151.630 4.880 41.826
151.640 5.010 57.778
151.650 4.390 50.599
151.660 4.630 48.384
151.670 4.800 72.917
151.680 5.150 81.062
151.690 4.420 55.834
151.700 3.820 57.905
151.710 4.560 66.591
151.720 4.500 75.501
151.730 4.550 66.219
151.740 4.510 76.665
151.750 4.110 80.195
151.760 4.790 61.060
151.770 5.340 85.008
151.800 5.590 88.488
151.830 4.600 57.847
151.840 4.740 55.551
151.850 4.430 69.361
151.860 4.250 57.850
151.870 4.240 53.047
151.880 4.580 49.238
151.890 5.130 85.968
151.900 4.890 58.266
151.910 4.750 74.181
151.920 4.870 80.186
151.940 5.640 89.259
151.980 5.140 84.214
151.990 4.280 59.966
152.020 4.190 68.732
152.030 4.610 63.712
152.040 4.730 59.777
152.070 5.520 69.102
152.090 4.950 73.457
152.120 5.310 80.483
152.130 5.790 76.774
152.150 4.870 83.698
152.160 4.180 55.989
152.230 4.370 47.890
152.240 4.630 51.120
152.260 5.230 66.056
152.360 5.460 87.683
152.440 4.500 72.009
152.450 5.220 63.103
152.490 4.570 61.893
152.500 4.220 65.056
152.520 5.780 86.510
152.550 4.500 74.528
152.560 4.760 69.846
152.580 4.640 58.930
152.610 4.700 80.545
152.640 5.390 56.247
152.650 5.200 67.149
152.660 4.320 57.611
152.700 4.600 83.064
152.710 5.810 74.654
152.740 4.030 85.880
152.750 5.060 89.542
152.770 4.410 61.088
152.780 4.190 76.258
152.790 4.790 64.599
152.800 4.640 49.874
152.810 4.310 68.413
152.820 4.260 83.683
152.840 4.990 68.761
152.850 4.470 72.412
152.860 4.000 65.840
152.880 4.850 66.999
152.900 4.190 78.099
152.910 4.400 75.342
152.920 4.390 62.201
152.940 4.480 50.136
152.950 4.330 71.076
152.960 4.310 68.939
152.970 4.630 65.666
152.980 3.990 52.280
152.990 5.030 60.248
153.000 4.760 67.218
153.010 5.220 55.946
153.020 4.470 74.404
153.030 5.020 45.755
153.040 4.640 65.656
153.840 5.530 74.987
153.930 5.230 82.559
154.160 5.180 82.033
154.200 5.720 84.952
154.220 5.380 76.380
154.260 4.100 71.066
154.270 4.860 71.870
154.280 4.670 74.288
154.290 4.500 82.637
154.300 4.930 77.408
154.310 4.130 78.644
154.320 4.400 76.363
154.330 4.440 72.735
154.340 4.510 49.621
154.350 4.280 74.663
154.360 4.640 81.352
154.370 4.050 74.805
154.380 4.190 65.249
154.390 5.030 76.163
154.400 4.840 54.307
154.410 4.340 44.058
154.420 5.110 80.912
154.430 4.650 68.252
154.440 5.250 52.689
154.450 4.220 47.185
154.460 4.820 62.472
154.540 5.430 70.072
154.570 5.930 84.230
154.600 5.850 81.142
154.610 5.830 84.162
154.660 5.770 83.066
154.680 5.860 83.968
154.700 4.700 77.522
154.710 5.940 76.544
154.720 5.720 84.760
154.810 5.410 83.558
155.400 4.680 84.582
155.410 4.710 62.623
155.420 4.920 79.790
155.440 4.740 78.274
155.460 5.260 89.325
155.480 4.720 88.128
155.540 5.390 89.563
155.850 5.950 88.030
156.050 5.210 81.871
156.120 5.560 84.202
156.170 5.910 76.716
156.260 4.780 80.399
156.270 4.870 89.648
156.280 5.150 84.292
156.300 5.480 88.795
156.320 5.300 88.545
156.430 5.920 83.539
156.520 5.270 86.605
156.540 5.990 83.343
156.680 5.850 83.974
156.690 5.970 83.639
156.720 5.930 58.278
156.750 5.040 86.081
156.760 5.170 87.384
156.800 5.990 76.034
156.810 5.870 87.919
156.830 5.110 84.710
156.850 5.380 81.407
156.860 5.870 77.277
156.890 5.900 77.531
156.900 5.770 81.080
156.940 5.770 87.690
156.960 5.810 71.115
156.980 5.900 68.493
157.010 5.850 82.764
157.030 6.000 75.944
157.060 5.960 58.386
157.070 5.830 78.053
157.310 5.400 66.958
157.360 5.820 62.854
157.400 5.830 70.253
157.420 5.430 77.791
157.440 5.360 75.179
157.470 5.850 86.332
157.570 5.290 78.889
157.620 5.780 86.194
157.670 5.480 83.818
157.680 5.600 84.275
157.700 5.720 82.520
157.710 5.280 83.550
157.770 5.170 85.951
157.800 4.790 77.953
157.840 5.620 72.377
157.880 4.890 65.090
157.910 5.620 74.007
157.920 5.440 85.141
157.930 5.720 87.414
157.960 5.130 89.929
157.980 5.760 72.118
158.080 5.570 89.282
158.100 5.850 73.669
158.120 5.630 75.032
158.140 5.650 79.950
158.540 5.590 76.648
158.560 5.830 87.872
158.750 5.690 83.630
159.420 5.340 72.492
159.790 5.620 89.778
159.810 5.910 69.154
160.070 4.910 83.346
160.120 4.930 78.206
160.150 5.810 86.431
160.250 5.330 89.417
160.440 5.270 86.560
160.450 6.000 85.604
160.500 4.950 84.081
160.590 5.770 83.275
160.620 5.910 82.844
160.630 5.900 81.508
160.640 5.970 82.734
160.670 5.250 77.980
160.720 5.370 74.817
160.760 5.880 64.922
160.770 5.290 74.553
160.810 5.760 73.583
160.870 5.380 89.148
160.880 5.660 69.004
160.900 5.890 87.853
160.930 5.710 77.130
160.940 5.050 89.190
160.960 5.650 81.126
160.980 5.650 85.203
161.030 5.920 86.414
161.060 5.990 85.662
161.150 5.920 72.946
161.190 5.760 87.754
161.220 5.830 80.224
161.230 5.710 78.757
161.260 5.980 75.426
161.280 5.980 68.430
161.290 5.960 86.254
161.320 5.820 52.273
161.330 5.800 54.316
161.490 5.080 85.867
161.510 5.230 78.792
161.540 5.780 84.237
161.560 5.510 70.772
161.570 5.280 87.549
161.590 5.830 86.384
161.600 5.240 84.460
161.610 5.890 72.367
161.620 5.640 69.285
161.640 5.870 66.248
161.660 5.920 59.253
161.730 5.580 86.876
161.760 5.970 82.931
161.780 5.220 69.844
161.790 5.810 89.318
161.820 5.790 84.729
161.830 5.750 82.959
161.880 5.980 89.533
161.900 5.710 85.318
161.910 5.740 70.627
161.970 4.980 84.098
162.000 5.900 87.586
162.100 5.770 81.573
162.150 5.980 85.402
162.230 5.390 76.999
162.240 5.350 81.811
162.280 5.780 71.256
162.300 5.700 85.024
162.330 5.790 72.797
162.340 5.550 88.345
162.350 5.670 87.604
162.390 5.580 78.437
162.410 5.570 87.803
162.520 5.700 80.775
162.530 5.050 86.429
162.540 5.170 83.642
162.550 5.260 88.377
162.570 5.810 75.128
162.590 5.650 89.334
162.610 4.540 83.355
162.710 4.880 84.558
162.790 4.600 89.141
162.890 5.660 80.622
162.910 5.070 88.996
163.070 5.950 84.014
163.100 5.810 79.448
163.110 5.210 89.009
163.430 5.840 79.653
163.440 5.440 72.212
163.450 5.010 89.568
163.460 5.270 86.623
163.480 5.100 82.194
163.490 5.480 83.070
163.500 5.240 88.017
163.520 5.780 70.084
163.540 5.540 82.916
163.560 5.090 72.780
163.570 5.750 77.200
163.580 5.700 84.984
163.600 5.640 75.678
163.690 5.820 69.745
163.780 5.930 69.112
163.790 5.280 76.115
163.810 5.540 79.704
163.920 4.960 89.742
164.000 5.880 72.796
164.190 4.870 85.375
164.240 5.290 52.992
164.250 5.080 59.418
164.260 5.080 31.934
164.370 5.090 81.396
164.380 5.670 51.487
164.390 5.230 55.990
164.410 5.310 76.917
164.420 5.410 85.366
164.430 5.090 42.487
164.440 5.550 69.352
164.460 5.860 89.258
164.470 4.340 67.299
164.480 4.990 66.823
164.490 5.180 74.332
164.510 5.310 83.881
164.520 5.340 71.237
164.550 5.070 72.527
164.560 5.490 61.553
164.590 5.940 61.855
164.600 4.430 57.419
164.610 5.050 72.818
164.620 5.310 81.739
164.650 4.550 59.688
164.660 4.100 77.562
164.670 4.670 70.621
164.680 4.340 77.005
164.690 5.480 78.918
164.700 5.900 82.873
164.710 4.860 84.142
164.840 4.810 54.861
164.860 4.520 72.270
164.870 4.830 54.429
164.880 4.950 78.503
164.890 5.050 85.842
164.900 4.410 42.114
164.910 4.830 27.054
164.920 4.530 40.868
164.930 4.650 27.427
164.940 4.940 39.050
164.950 4.940 69.746
164.960 5.250 80.582
165.000 4.580 77.257
165.010 3.970 75.659
165.020 4.220 76.689
165.030 5.360 85.727
165.040 5.050 87.899
165.100 5.190 38.335
165.110 4.760 67.612
165.120 4.680 72.032
165.130 4.200 48.232
165.140 5.010 47.947
165.150 5.060 49.575
165.160 4.220 38.363
165.170 5.550 42.525
165.190 5.360 39.368
165.220 4.430 77.458
165.230 5.470 87.032
165.240 4.380 62.121
165.250 4.110 53.226
165.260 4.440 69.834
165.270 5.000 67.204
165.280 4.500 59.803
165.290 4.110 59.959
165.300 4.380 50.086
165.320 4.120 48.770
165.330 4.090 61.988
165.340 4.400 44.966
165.350 4.900 45.792
165.360 4.610 74.351
165.370 4.980 47.829
165.390 5.150 47.776
165.400 4.650 48.787
165.410 4.240 68.427
165.420 4.410 31.816
165.430 5.330 78.468
165.440 4.580 72.229
165.450 5.210 60.789
165.460 4.890 53.654
165.470 4.700 72.484
165.480 5.150 76.968
165.490 4.730 54.428
165.500 5.110 71.137
165.510 4.470 62.155
165.540 5.470 78.068
165.570 5.380 80.324
165.580 4.680 76.481
165.590 5.140 84.094
165.600 5.600 89.750
165.620 5.920 89.451
165.640 5.660 78.954
165.650 5.190 72.960
165.690 5.170 84.644
165.700 4.110 41.370
165.710 4.480 38.498
165.720 4.940 70.208
165.730 4.770 72.930
165.740 4.660 51.310
165.750 5.360 70.142
165.760 4.950 69.450
165.770 5.250 28.707
165.780 4.600 40.496
165.790 4.880 81.480
165.800 4.980 68.720
165.810 4.140 65.357
165.820 4.660 51.689
165.830 5.570 19.041
165.860 4.810 74.775
165.880 5.450 54.614
165.890 5.610 67.664
165.900 4.870 68.857
165.910 4.810 76.116
165.920 5.490 51.121
165.930 5.050 61.873
165.940 5.590 77.909
165.950 5.020 60.409
165.960 4.530 70.587
165.970 4.360 52.433
165.980 3.980 77.906
165.990 4.980 59.996
166.000 4.880 70.159
166.020 5.550 75.788
166.040 4.570 68.677
166.070 4.390 88.292
166.080 4.010 75.497
166.090 4.410 89.732
166.120 4.960 81.970
166.130 4.210 71.243
166.140 4.500 73.142
166.310 5.890 87.867
166.330 5.870 81.126
166.360 5.260 81.759
166.540 5.220 71.305
166.550 4.370 69.527
166.560 4.790 70.224
166.620 5.650 83.712
166.710 4.980 82.423
166.720 5.230 80.831
166.800 4.790 73.126
166.960 5.340 84.987
167.000 5.140 71.171
167.030 4.880 67.515
167.040 4.700 73.763
167.050 4.980 84.811
167.060 5.160 82.951
167.070 4.560 86.011
167.080 5.590 88.683
167.100 5.080 84.611
167.110 4.270 56.490
167.150 3.750 80.873
167.170 5.380 70.776
167.200 5.860 87.527
167.370 5.770 83.652
167.400 5.340 75.486
167.420 5.310 85.528
167.540 5.760 77.468
167.730 5.730 89.406
167.750 5.080 82.423
167.780 4.520 77.777
167.820 4.760 81.966
168.080 4.810 87.620
168.090 4.020 89.696
168.100 3.900 59.182
168.110 4.120 66.100
168.120 4.320 33.699
168.130 4.390 57.508
168.160 5.550 82.524
168.190 4.870 89.905
168.260 5.900 86.928
168.300 5.690 86.745
168.320 3.960 77.344
168.360 4.130 66.257
168.370 4.230 68.103
168.380 4.740 75.736
168.400 4.730 46.454
168.410 4.150 83.517
168.420 4.480 71.870
168.430 4.130 70.370
168.440 4.640 83.300
168.450 4.630 46.248
168.460 5.000 84.495
168.480 4.770 60.380
168.520 5.680 78.533
168.530 5.150 52.222
168.540 4.860 45.417
168.550 4.910 47.848
168.560 4.550 68.370
168.570 5.430 42.469
168.600 4.080 89.336
168.610 4.310 63.221
168.620 4.060 86.732
168.630 4.540 81.328
168.640 5.710 84.299
168.660 5.250 83.009
168.680 4.410 75.104
168.690 4.580 75.412
168.710 4.940 69.632
168.730 4.890 84.090
168.740 4.630 69.157
168.750 4.940 71.559
168.760 4.890 80.866
168.780 4.790 49.659
168.800 3.980 85.138
168.810 4.240 83.425
168.820 3.800 83.258
168.840 3.720 85.612
168.850 3.880 89.674
168.860 4.310 72.633
168.870 4.030 84.777
168.880 4.120 74.357
168.900 4.740 72.490
168.930 5.330 74.137
169.220 5.100 52.199
169.230 4.920 88.336
169.240 4.170 56.957
169.250 4.400 84.626
169.260 4.760 61.644
169.270 4.580 73.565
169.280 4.750 40.334
169.290 4.460 27.164
169.300 4.430 74.265
169.310 4.300 66.284
169.320 4.020 73.722
169.330 4.860 59.645
169.340 5.090 60.383
169.350 4.560 86.442
169.360 4.870 67.436
169.370 4.230 46.169
169.390 5.260 53.723
169.440 4.940 87.833
169.460 4.700 78.240
169.480 4.540 59.437
169.490 4.040 53.000
169.500 4.070 67.569
169.510 4.400 44.925
169.520 4.450 42.344
169.530 4.840 46.131
169.540 4.410 55.991
169.550 5.150 57.482
169.600 5.560 65.760
169.780 5.470 56.167
169.790 5.830 64.079
169.860 5.610 77.504
169.870 5.270 50.931
170.160 5.700 74.204
170.170 5.820 80.264
170.180 5.970 85.789
170.270 5.880 82.870
170.490 5.690 65.534
170.500 5.660 75.045
170.680 4.380 88.982
170.710 4.180 87.293
170.720 4.710 88.037
170.730 4.980 67.232
170.750 4.530 59.801
170.760 4.310 81.004
170.770 4.930 65.572
170.780 4.760 77.790
170.790 4.710 83.755
170.800 4.120 49.309
170.810 4.550 82.683
170.820 4.320 70.778
170.840 4.800 83.664
170.850 4.340 74.328
170.860 4.320 70.108
170.870 4.760 74.921
170.880 4.700 42.132
170.890 4.970 67.146
170.900 4.560 80.144
170.920 4.800 76.366
170.930 4.280 61.082
170.950 4.120 53.136
170.970 4.580 72.589
170.980 4.780 66.602
170.990 4.430 66.422
171.000 4.960 84.647
171.010 4.700 69.479
171.020 4.190 59.287
171.030 4.550 60.518
171.040 4.280 55.225
171.050 4.400 58.157
171.060 4.700 48.908
171.070 4.140 75.227
171.120 4.080 87.503
171.130 4.310 71.926
171.150 4.400 76.252
171.160 3.850 65.033
171.170 4.090 74.809
171.180 3.930 70.622
171.200 4.130 60.049
171.230 4.840 42.927
171.240 4.010 88.240
171.250 4.250 75.673
171.260 4.050 68.509
171.270 4.230 63.643
171.280 4.070 51.492
171.290 4.880 66.954
171.310 4.620 50.443
171.320 4.870 71.278
171.330 4.750 61.163
171.350 5.800 67.552
171.370 5.420 76.325
171.380 4.700 59.184
171.400 4.410 70.610
171.410 4.430 80.775
171.420 4.030 70.473
171.430 4.150 77.783
171.440 3.920 78.172
171.450 3.730 80.641
171.460 3.710 73.529
171.470 3.850 89.068
171.480 4.060 74.494
171.490 3.880 75.990
171.500 4.320 84.579
171.510 4.520 83.541
171.520 3.840 83.113
171.540 4.020 88.646
171.550 4.060 83.941
171.560 4.360 74.712
171.570 4.270 76.532
171.580 4.200 67.609
171.590 4.130 68.069
171.620 3.890 74.169
171.630 4.110 46.331
171.640 4.190 64.870
171.650 4.210 68.288
171.660 4.290 76.715
171.670 4.510 81.156
171.680 4.310 69.324
171.690 4.180 73.384
171.730 4.050 70.332
171.750 4.370 70.033
171.760 4.110 74.243
171.770 4.090 60.192
171.800 4.750 44.519
171.810 4.370 56.768
171.820 4.570 74.769
171.830 4.360 80.478
171.840 4.240 66.540
171.850 4.180 78.575
171.860 4.170 88.165
171.870 4.580 80.235
171.880 3.870 64.387
171.890 5.300 78.471
171.920 5.930 67.589
171.930 5.660 54.895
171.950 5.440 86.531
171.960 5.030 79.265
171.970 4.940 71.468
171.980 5.180 52.712
171.990 4.550 35.284
172.000 4.990 35.586
172.010 5.340 49.165
172.020 4.840 38.179
172.030 4.840 39.355
172.050 4.360 75.382
172.060 3.920 59.335
172.070 4.810 42.910
172.080 4.900 77.423
172.090 5.000 30.685
172.100 4.870 63.848
172.110 4.300 63.722
172.120 4.990 59.978
172.130 5.080 74.911
172.140 4.970 53.991
172.150 4.580 56.635
172.160 4.350 52.053
172.170 3.800 72.577
172.180 4.070 85.428
172.200 4.460 60.156
172.210 4.360 55.764
172.220 4.780 67.846
172.230 5.400 56.698
172.240 4.970 61.626
172.250 4.670 70.200
172.260 4.890 66.904
172.270 5.230 70.744
172.280 5.010 60.275
172.290 5.470 76.997
172.300 4.430 58.426
172.310 3.830 63.894
172.320 4.120 85.342
172.330 3.960 63.053
172.340 3.620 73.184
172.350 3.890 67.168
172.360 3.930 78.139
172.370 4.030 77.280
172.420 3.670 70.944
172.450 4.750 48.150
172.460 5.080 54.245
172.470 4.950 46.710
172.480 5.130 66.705
172.490 4.780 62.608
172.500 5.310 70.834
172.510 5.190 62.145
172.520 4.820 86.194
172.530 5.430 70.170
172.540 4.720 67.157
172.550 4.720 61.452
172.560 5.250 74.958
172.570 4.250 75.721
172.580 5.040 84.663
172.590 4.960 80.465
172.600 4.940 55.879
172.610 4.680 56.432
172.620 4.930 46.242
172.630 3.790 83.122
172.640 4.800 74.722
172.650 4.520 46.423
172.660 5.220 37.999
172.670 4.740 39.135
172.680 4.790 41.619
172.690 5.170 80.191
172.720 4.880 87.828
172.730 4.600 62.907
172.740 4.730 72.855
172.750 5.270 89.327
172.770 5.070 71.137
172.790 5.190 61.972
172.810 4.890 78.507
172.820 4.930 81.502
172.830 5.230 65.210
172.840 5.160 51.275
172.850 5.050 50.423
172.860 4.990 73.600
172.880 5.090 60.800
172.890 4.230 57.922
172.900 3.650 76.732
172.910 4.350 56.389
172.920 4.260 71.293
172.940 3.680 87.833
172.960 4.460 84.208
172.980 3.820 80.801
172.990 3.930 74.815
173.040 4.460 61.661
173.050 4.610 79.149
173.060 4.080 82.268
173.070 4.540 54.558
173.080 4.230 57.658
173.090 4.230 66.966
173.100 3.750 68.003
173.110 4.000 60.875
173.120 3.770 70.320
173.130 3.830 83.724
173.150 4.150 77.172
173.160 3.770 76.199
173.180 3.820 76.224
173.190 4.620 79.812
173.200 4.820 72.646
173.210 4.120 76.924
173.220 4.560 39.161
173.230 4.890 75.751
173.240 4.010 76.234
173.250 5.120 57.566
173.260 4.360 79.564
173.270 3.930 89.397
173.280 4.440 65.207
173.290 4.140 47.614
173.300 4.240 70.883
173.310 4.440 61.368
173.320 4.650 88.030
173.330 4.530 51.797
173.340 4.200 52.494
173.370 4.970 65.294
173.380 4.960 70.309
173.390 5.150 63.090
173.400 4.960 64.170
173.410 4.540 88.092
173.420 4.500 32.158
173.430 3.980 89.160
173.440 4.410 81.689
173.470 4.770 75.361
173.480 5.350 25.340
173.500 3.930 83.271
173.510 4.420 71.953
173.520 4.880 82.404
173.530 4.860 38.669
173.540 4.850 54.445
173.550 4.150 60.882
173.560 3.890 32.649
173.570 4.930 52.995
173.580 5.130 70.948
173.610 5.290 89.878
173.620 5.980 89.731
173.640 5.160 63.782
173.650 5.650 88.914
173.670 5.370 77.458
173.690 4.870 58.206
173.710 5.910 64.896
173.720 4.340 63.673
173.730 4.490 54.840
173.740 4.490 43.889
173.750 4.010 36.534
173.760 4.080 69.538
173.770 4.610 51.166
173.780 4.450 52.138
173.790 4.370 65.011
173.800 4.340 71.847
173.810 4.700 56.661
173.820 4.380 52.036
173.830 4.100 62.334
173.840 4.460 79.367
173.880 4.260 33.707
173.890 5.210 42.970
173.900 5.520 44.265
173.910 4.750 40.447
173.920 4.480 84.518
173.930 4.640 33.364
173.940 4.730 56.155
173.950 4.560 39.572
173.960 4.960 60.253
173.970 4.550 35.946
173.980 4.820 41.878
173.990 4.440 57.394
174.000 4.920 24.847
174.010 5.290 68.860
174.020 5.710 35.028
174.030 5.320 46.072
174.040 5.360 87.983
174.050 4.210 74.153
174.060 4.770 59.203
174.070 4.840 38.756
174.080 4.600 38.834
174.090 4.170 67.285
174.120 4.440 68.484
174.140 4.070 89.309
174.150 4.280 70.057
174.160 5.480 67.064
174.170 5.080 80.897
174.180 5.050 49.414
174.200 5.100 46.323
174.210 4.320 72.500
174.220 4.450 39.431
174.230 4.480 42.898
174.250 4.800 42.581
174.280 3.970 81.102
174.290 3.970 72.006
174.300 4.440 50.734
174.310 3.880 72.206
174.320 4.100 69.728
174.330 3.890 87.105
174.340 4.920 68.094
174.360 4.960 86.965
174.380 5.570 84.421
174.390 5.370 75.172
174.410 5.680 88.202
174.440 3.720 87.558
174.460 4.040 51.404
174.470 3.830 71.666
174.480 4.190 70.351
174.580 4.980 83.031
174.960 4.080 60.207
174.980 4.360 81.787
174.990 4.010 74.873
175.000 3.720 54.521
175.010 4.580 67.894
175.020 3.670 67.959
175.040 4.400 73.698
175.050 4.390 87.016
175.060 5.220 64.908
175.070 4.170 60.146
175.080 4.810 44.057
175.090 5.360 68.027
175.100 4.600 75.330
175.110 4.980 85.564
175.120 4.090 53.787
175.130 4.990 73.121
175.140 4.220 71.574
175.150 5.240 43.642
175.160 4.540 66.919
175.170 4.360 52.964
175.180 5.040 34.760
175.190 4.740 33.090
175.200 4.780 87.739
175.210 4.680 41.718
175.220 5.080 52.822
175.230 4.460 53.762
175.240 4.720 49.031
175.250 4.950 58.645
175.260 4.850 63.444
175.270 4.060 58.881
176.120 4.670 65.085
176.560 5.800 80.156
176.570 5.760 85.392
176.580 5.730 62.547
176.590 5.220 82.397
190.320 5.590 56.720
190.450 4.640 56.640
190.460 5.120 68.307
190.470 4.580 84.698
190.480 4.410 76.108
190.490 4.330 66.570
190.500 4.300 56.757
190.510 4.700 66.950
190.520 4.240 66.720
190.530 4.290 37.006
190.540 4.130 83.838
190.560 4.090 70.114
190.570 4.770 70.829
190.580 4.290 81.062
190.590 4.590 41.878
190.600 4.980 44.409
190.610 4.600 37.206
190.620 4.630 30.053
190.630 5.150 71.844
190.640 4.810 24.293
190.650 4.670 42.138
190.660 4.810 46.191
190.670 4.670 34.477
190.680 4.430 65.081
190.690 4.640 53.918
190.700 4.360 56.205
190.710 4.340 56.826
190.720 4.610 61.560
190.740 4.580 47.199
190.750 4.450 39.168
190.760 4.320 43.315
190.770 4.510 44.538
190.780 4.570 68.654
190.790 4.390 38.033
190.800 4.140 54.453
190.810 4.780 40.524
190.820 5.160 45.184
190.830 5.400 37.656
190.840 4.680 64.441
190.850 4.900 46.102
190.860 5.030 70.663
190.870 5.010 43.143
190.880 4.370 73.822
190.890 4.380 56.648
190.900 4.370 36.264
190.910 4.590 27.123
190.920 4.590 32.815
190.930 4.640 39.517
190.940 4.420 41.289
190.950 4.490 59.886
190.960 4.820 45.910
190.970 4.510 62.448
190.980 4.510 50.532
190.990 4.510 41.986
191.010 4.330 70.018
191.020 4.120 79.014
191.030 4.110 60.194
191.040 4.280 83.437
191.050 4.020 48.971
191.060 4.260 73.501
191.070 4.340 75.841
191.080 4.240 70.813
191.090 4.700 72.493
191.100 4.940 55.686
191.110 4.240 55.881
191.120 4.400 65.396
191.130 4.330 79.483
191.140 4.770 70.650
191.150 4.220 64.678
191.160 5.020 35.721
191.170 4.630 67.343
191.180 4.490 69.365
191.190 4.880 86.997
191.200 4.400 48.810
191.210 5.130 44.326
191.230 4.530 72.623
191.250 4.000 66.736
191.270 4.250 78.499
191.280 4.870 87.160
191.290 4.380 78.723
191.340 4.280 72.820
191.350 4.070 60.593
191.380 4.600 61.278
191.400 4.380 82.449
191.420 4.510 82.342
191.430 4.240 88.131
191.450 4.770 49.801
191.460 5.110 60.756
191.470 4.390 37.218
191.480 4.950 58.304
191.490 4.700 68.775
191.500 4.310 41.570
191.510 4.380 53.808
191.520 4.400 42.775
191.530 4.760 42.718
191.540 4.470 65.357
191.550 4.200 48.745
191.560 4.200 64.880
191.570 4.200 55.392
191.580 5.550 80.180
191.590 4.760 80.432
191.600 4.570 64.007
191.610 5.130 72.337
191.620 4.060 75.001
191.630 4.750 86.465
191.640 4.450 72.136
191.650 4.670 80.800
191.660 4.170 78.222
191.670 4.630 80.119
191.680 4.780 34.875
191.690 4.150 61.310
191.720 5.240 88.966
191.740 4.730 83.089
191.760 4.730 47.422
191.770 4.680 53.443
191.780 5.260 88.162
191.810 5.370 77.939
191.820 4.660 77.081
191.830 5.040 82.230
191.840 5.000 54.161
191.860 3.890 66.945
191.870 3.880 79.782
191.920 4.060 81.382
191.930 4.250 50.325
191.940 4.140 79.038
191.950 3.790 61.950
191.960 4.600 81.588
191.970 3.900 80.336
191.990 5.110 79.116
192.000 4.060 67.657
192.010 3.710 67.979
192.020 3.870 87.272
192.040 3.850 81.563
192.050 3.750 83.207
192.060 4.110 81.818
192.070 3.660 82.525
192.100 4.670 86.896
192.110 4.980 80.989
192.150 5.610 85.320
192.190 4.430 56.989
192.200 4.080 67.357
192.280 5.060 89.625
192.320 5.660 87.077
192.730 5.700 83.256
192.740 5.300 23.182
192.750 4.660 73.104
192.760 4.570 38.995
192.770 4.820 70.815
192.780 4.890 34.312
192.790 5.500 58.440
192.800 5.220 54.922
192.810 4.770 51.041
192.820 4.250 31.741
192.830 4.710 54.820
192.840 4.650 48.038
192.850 5.140 32.187
192.860 4.970 52.904
192.870 4.230 52.422
192.880 4.360 52.146
192.890 4.660 56.569
192.900 3.980 57.007
192.920 5.350 46.333
192.930 4.740 57.595
192.940 4.680 59.033
192.950 5.120 51.137
192.960 4.970 56.673
192.970 5.430 37.152
192.980 5.360 36.794
192.990 4.990 52.414
193.000 4.620 39.892
193.010 4.390 28.615
193.020 4.610 51.673
193.030 4.350 39.628
193.040 5.370 62.427
193.050 4.670 53.399
193.060 5.620 27.355
193.080 5.150 50.509
193.090 5.590 42.923
193.100 5.340 30.478
193.110 5.820 31.408
193.120 5.810 41.766
193.130 5.610 38.643
193.140 5.220 58.949
193.150 5.070 51.853
193.160 5.650 41.377
193.170 5.960 29.214
193.180 5.120 52.117
193.190 5.280 34.837
193.200 5.090 36.445
193.210 4.910 44.587
193.220 4.740 36.064
193.230 5.050 30.529
193.240 4.760 44.254
193.250 4.760 45.613
193.260 4.600 60.521
193.270 4.350 46.331
193.280 4.770 44.602
193.290 4.820 69.366
193.300 5.320 57.454
193.310 5.170 67.967
193.320 5.430 53.328
193.330 4.860 52.770
193.340 4.590 53.525
193.350 4.940 48.663
193.360 4.800 53.155
193.370 4.990 36.609
193.380 4.430 61.427
193.390 5.090 69.575
193.400 5.240 51.249
193.410 5.010 45.526
193.420 5.060 58.410
193.430 5.090 72.061
193.440 5.420 89.370
193.460 5.320 86.692
193.470 4.860 48.038
193.480 3.900 65.819
193.490 4.240 66.180
193.500 3.920 49.852
193.510 4.310 48.808
193.520 4.010 67.270
193.530 4.250 74.311
193.540 3.900 79.902
193.550 3.900 70.585
193.560 4.020 78.525
193.570 4.340 66.291
193.580 4.580 61.949
193.590 5.270 38.403
193.600 4.430 64.095
193.610 4.810 57.968
193.620 4.530 70.167
193.630 4.930 48.274
193.640 5.480 48.624
193.650 4.980 61.927
193.660 4.720 60.390
193.670 4.920 47.572
193.680 4.190 64.078
193.690 5.410 22.706
193.700 5.240 43.777
193.710 5.020 26.695
193.720 4.970 57.729
193.730 4.670 64.201
193.740 5.130 59.851
193.750 4.870 65.219
193.760 5.980 18.037
193.770 5.760 63.716
193.780 4.940 53.828
193.790 5.100 84.344
193.810 4.920 83.036
193.820 5.770 55.750
193.830 5.240 84.971
193.840 5.300 47.228
193.860 5.480 51.023
193.870 5.980 28.797
193.880 5.600 41.768
193.890 4.640 39.906
193.900 4.660 71.683
193.910 5.500 66.708
193.920 5.560 66.975
193.930 4.960 58.445
193.940 5.500 26.592
193.950 4.850 41.159
193.960 4.880 38.877
193.970 5.200 68.031
193.980 4.520 34.017
193.990 4.980 79.051
194.000 5.170 72.642
194.010 4.850 55.144
194.020 5.060 55.909
194.030 5.230 83.646
194.040 4.730 43.993
194.050 5.080 62.568
194.060 5.240 53.655
194.070 4.860 66.207
194.080 5.110 57.435
194.090 4.400 56.075
194.100 4.240 88.309
194.110 4.300 76.031
194.120 5.090 88.941
194.140 4.470 85.237
194.150 3.960 70.178
194.160 3.790 52.637
194.170 4.390 34.343
194.180 5.490 39.656
194.190 5.720 46.959
194.200 5.200 59.805
194.210 4.580 51.246
194.220 5.470 80.804
194.260 4.730 62.562
194.270 4.500 56.576
194.280 4.990 70.285
194.290 4.830 81.973
194.300 5.620 74.424
194.330 5.210 67.488
194.340 5.130 28.383
194.350 4.830 71.841
194.360 5.090 84.532
194.370 5.270 78.719
194.380 5.270 77.098
194.400 4.750 80.279
194.410 5.060 83.846
194.420 4.880 68.049
194.430 4.750 61.634
194.460 5.830 52.215
194.470 5.400 53.271
194.480 4.420 53.611
194.490 5.140 63.604
194.500 5.090 60.581
194.510 4.890 65.458
194.520 5.150 68.403
194.530 5.190 73.868
194.550 5.690 70.549
194.560 5.810 12.382
194.570 4.860 61.626
194.580 5.020 85.215
194.590 5.230 67.083
194.600 4.610 71.359
194.610 5.370 70.487
194.620 4.420 66.112
194.630 5.180 80.604
194.640 4.750 75.117
194.690 5.580 88.536
194.700 5.980 83.229
194.710 5.770 76.352
194.720 5.140 74.335
194.730 5.470 27.773
194.740 4.910 57.847
194.750 5.200 66.127
194.760 5.230 70.484
194.770 4.620 82.021
194.780 5.030 47.378
194.790 4.540 53.492
194.810 5.180 66.453
194.820 4.760 85.867
194.830 4.790 76.494
194.840 5.890 89.155
194.860 4.550 81.347
194.870 4.780 73.522
194.890 4.950 86.090
194.900 4.890 63.973
194.910 5.550 77.931
194.920 5.380 77.049
194.940 5.100 67.863
194.950 4.990 72.562
194.960 5.260 83.557
194.970 5.920 56.163
194.980 5.000 70.719
194.990 5.990 70.973
195.000 4.900 49.112
195.020 5.300 51.437
195.030 5.290 68.745
195.040 5.100 62.665
195.050 5.050 40.379
195.060 4.720 68.794
195.070 4.800 82.808
195.080 5.110 67.058
195.090 4.740 83.269
195.100 5.150 78.670
195.110 5.260 69.252
195.120 4.910 77.165
195.130 4.910 77.611
195.140 4.870 63.122
195.150 5.050 27.704
195.160 5.110 75.103
195.170 4.790 62.953
195.180 5.830 26.432
195.190 5.120 56.031
195.200 5.010 71.040
195.210 4.900 68.361
195.220 5.570 87.632
195.230 5.550 71.493
195.250 5.680 88.189
195.260 4.760 70.380
195.270 4.980 78.443
195.280 5.250 82.991
195.300 5.090 76.476
195.310 5.000 55.679
195.320 4.310 59.289
195.330 4.530 48.730
195.340 4.460 25.624
195.350 4.460 71.438
195.360 5.330 56.022
195.370 5.430 85.908
195.380 4.370 44.470
195.440 4.010 83.454
195.500 3.740 89.531
195.570 3.840 79.394
195.700 4.440 87.596
195.720 4.420 54.554
195.730 5.410 86.102
195.740 5.360 80.696
195.750 5.100 51.060
195.760 5.400 78.406
195.770 5.820 86.949
195.780 5.900 79.278
195.800 5.080 67.969
195.840 5.190 85.828
195.850 3.990 51.758
195.860 4.410 74.892
195.870 3.980 73.107
195.880 4.250 60.712
195.890 4.510 39.155
195.900 4.560 85.898
195.920 4.700 53.925
195.930 4.800 19.814
195.940 4.790 44.720
195.950 4.380 51.896
196.130 5.750 71.362
196.200 5.330 89.541
196.330 5.930 59.481
196.380 4.920 77.609
196.390 4.690 81.683
196.400 5.290 83.610
196.650 4.400 87.530
196.670 4.580 81.065
196.740 4.910 81.723
196.750 5.570 71.213
196.780 5.980 64.468
196.790 5.120 88.303
196.810 5.590 78.454
196.830 5.720 65.425
196.850 5.600 67.925
196.950 5.100 82.035
196.970 5.420 84.376
197.000 5.760 62.753
197.060 5.080 35.724
197.240 5.910 58.553
197.920 5.610 86.919
198.050 5.890 89.096
198.230 5.820 65.745
198.270 5.470 50.658
198.400 5.990 73.180
198.520 5.060 79.474
198.530 4.580 75.114
198.540 4.460 76.546
198.550 4.910 51.846
198.560 5.580 83.434
198.580 5.050 55.732
198.590 5.150 45.190
198.600 4.460 45.289
198.610 5.910 81.557
198.620 4.640 51.792
198.640 4.430 73.845
198.670 5.100 43.859
198.680 4.380 82.402
198.690 4.460 59.629
198.700 4.260 76.584
198.710 4.020 58.146
198.720 4.120 67.717
198.730 4.220 56.223
198.840 5.180 80.441
198.850 5.590 81.052
198.910 5.330 39.167
198.920 4.760 77.035
198.960 5.780 57.328
198.970 5.560 72.248
198.980 5.080 88.944
198.990 5.140 61.377
199.000 4.070 68.446
199.010 4.830 43.826
199.020 5.070 43.600
199.030 4.600 80.092
199.070 5.110 89.691
199.080 4.000 44.999
199.090 4.770 77.526
199.110 4.890 88.587
199.120 5.260 87.065
199.140 5.430 79.203
199.200 5.610 89.949
199.230 4.530 66.821
199.240 4.950 88.587
199.250 3.940 64.116
199.260 4.170 47.786
199.270 4.450 27.940
199.280 4.800 33.931
199.290 4.370 36.408
199.300 4.370 48.440
199.310 4.780 60.689
199.320 4.280 49.451
199.330 3.950 78.434
199.340 4.430 76.721
199.350 4.220 58.908
199.360 4.710 70.343
199.390 5.520 76.919
199.720 5.410 77.815
200.000 5.130 76.674
200.010 4.230 63.914
200.020 4.070 69.491
200.030 4.640 89.234
200.040 4.170 80.948
200.050 4.980 60.190
200.070 4.100 45.754
200.080 3.900 82.901
200.090 4.110 87.852
200.100 4.330 66.766
200.110 3.720 84.462
200.120 4.010 72.842
200.130 3.970 82.190
200.140 4.210 64.257
200.150 3.730 70.048
200.160 3.790 83.381
200.180 3.910 84.979
200.200 3.800 82.107
200.210 4.140 77.043
200.220 3.940 78.440
200.230 3.960 73.494
200.240 3.880 82.729
200.290 3.820 81.320
200.370 4.550 60.895
200.410 5.210 80.897
200.450 5.620 88.942
200.790 5.370 75.775
200.810 5.620 87.233
200.850 4.770 73.306
200.870 5.010 87.160
200.880 4.630 64.350
200.890 4.310 59.776
200.940 4.230 78.265
200.950 4.610 53.903
200.960 4.790 70.500
200.970 5.250 67.757
200.980 5.070 83.972
201.000 5.070 89.648
201.010 4.570 74.002
201.020 4.160 43.963
201.030 5.280 63.703
201.050 4.400 72.651
201.070 4.970 86.543
201.080 4.450 72.520
201.090 4.540 42.684
201.100 4.140 35.155
201.110 4.090 64.313
201.120 4.380 36.144
201.130 5.360 32.125
201.140 5.250 48.319
201.150 5.090 62.756
201.160 4.320 68.618
201.170 4.560 67.476
201.180 4.510 66.442
201.190 4.200 63.111
201.200 4.540 71.103
201.210 5.090 69.645
201.220 4.420 46.750
201.270 4.590 35.516
201.280 4.280 44.976
201.290 4.020 47.908
201.300 5.450 61.713
201.310 5.040 49.129
201.320 4.980 56.594
201.330 5.870 54.908
201.340 5.230 75.592
201.350 5.360 84.856
201.360 5.110 74.466
201.370 5.720 68.563
201.380 5.140 65.755
201.480 5.070 71.460
201.490 4.420 84.030
201.500 5.070 61.803
201.510 4.850 57.400
201.520 4.430 47.310
201.530 4.330 64.691
201.540 4.190 51.110
201.550 4.360 59.250
201.560 4.800 45.784
201.570 4.950 60.392
201.580 5.080 42.489
201.590 4.790 78.783
201.600 5.140 71.503
201.610 4.920 70.820
201.620 4.880 63.043
201.630 4.490 59.954
201.650 3.980 65.935
201.660 4.530 73.404
201.670 3.710 79.125
201.680 5.300 58.287
201.700 4.120 83.049
201.780 4.630 83.639
201.790 4.800 67.403
201.800 4.960 85.370
201.810 4.760 77.987
201.820 5.340 52.745
201.830 4.820 70.218
201.840 4.670 68.378
201.850 4.620 70.959
201.860 4.850 59.661
201.870 4.740 83.298
201.880 4.630 34.360
201.900 5.580 54.600
201.910 5.190 66.137
201.920 4.800 53.640
201.930 5.210 88.333
201.940 4.970 88.759
201.950 5.480 89.864
201.960 5.700 83.521
201.970 4.640 81.792
201.980 5.030 61.943
201.990 4.700 43.497
202.000 5.090 59.515
202.010 3.910 49.228
202.020 4.280 51.153
202.030 4.620 54.601
202.040 4.690 81.620
202.050 5.040 61.433
202.070 5.010 66.401
202.080 5.090 67.009
202.110 4.480 65.955
202.120 4.280 71.971
202.130 4.410 85.112
202.140 5.250 83.914
202.150 4.480 66.933
202.200 4.810 82.648
202.220 4.950 89.282
202.240 4.510 88.369
202.250 4.600 60.684
202.260 4.190 86.697
202.310 4.720 60.050
202.330 4.480 70.101
202.450 4.960 88.784
202.590 3.890 54.817
202.600 4.840 72.795
202.610 5.020 74.328
202.620 5.630 79.443
202.640 5.220 71.675
202.660 4.690 87.391
202.670 4.360 69.022
202.680 3.990 51.716
202.690 4.380 50.757
202.700 4.270 48.033
202.720 5.060 80.181
202.730 4.840 59.270
202.750 5.030 78.274
202.760 4.450 83.591
202.770 4.590 60.518
202.810 5.220 69.782
202.820 4.920 89.016
202.830 4.810 58.589
202.840 4.510 53.258
202.850 4.530 76.283
202.860 5.270 82.336
202.870 4.860 72.580
202.880 4.350 51.250
202.890 5.220 81.357
202.900 4.650 76.961
202.910 4.410 57.360
202.920 5.000 49.201
202.930 4.310 59.465
202.950 5.070 80.458
202.980 4.710 75.469
202.990 4.630 77.991
203.000 4.410 41.228
203.010 4.200 83.331
203.020 4.300 54.040
203.030 4.700 78.818
203.090 4.550 83.437
203.100 4.900 76.514
203.110 4.510 46.409
203.120 4.410 49.056
203.130 4.450 70.187
203.140 4.180 66.341
203.150 4.700 82.339
203.160 4.500 35.204
203.170 4.350 46.037
203.180 4.320 80.822
203.200 4.980 74.703
203.210 4.410 72.244
203.220 4.530 33.216
203.230 4.680 46.133
203.250 4.290 47.252
203.260 4.620 33.113
203.270 4.570 55.384
203.280 4.100 81.660
203.290 4.420 81.502
203.320 4.510 78.066
203.330 5.490 83.507
203.380 4.980 86.920
203.390 5.390 76.364
203.400 4.620 67.661
203.430 4.440 69.952
203.440 4.190 47.797
203.450 4.080 60.743
203.460 4.060 82.842
203.470 4.570 64.916
203.490 4.480 68.146
203.500 4.260 61.282
203.510 4.830 73.731
203.520 4.400 62.731
203.530 4.650 63.143
203.570 4.270 51.510
203.580 4.630 71.918
203.640 4.220 72.144
203.650 4.230 76.518
203.670 4.330 73.743
203.680 4.170 62.778
203.690 4.670 89.367
203.710 4.620 74.834
203.720 4.500 81.201
203.730 4.840 77.014
203.740 4.680 69.745
203.750 4.640 87.251
203.760 4.890 69.918
203.780 5.460 83.944
203.790 4.580 61.389
203.800 5.670 72.985
203.820 5.190 63.751
203.830 4.430 58.222
203.840 4.260 55.916
203.850 4.840 69.866
203.860 3.680 73.043
203.870 4.320 79.920
203.880 4.170 72.989
203.890 4.590 76.790
203.900 4.220 78.546
203.910 4.260 61.459
203.920 4.040 62.034
203.930 4.750 69.688
203.940 4.400 64.711
203.950 4.520 72.405
203.960 4.770 81.038
203.980 4.310 81.830
203.990 5.300 50.682
204.000 4.940 52.537
204.010 4.150 49.799
204.020 4.300 59.427
204.040 5.090 82.769
204.050 4.320 56.143
204.060 4.440 62.182
204.070 4.770 78.977
204.080 4.430 66.249
204.090 4.380 60.881
204.100 4.780 50.928
204.110 4.680 89.003
204.120 5.620 61.516
204.130 5.490 60.297
204.140 4.980 68.769
204.380 4.560 79.089
204.390 4.560 82.685
204.470 5.100 86.212
204.980 4.700 84.340
205.010 4.820 89.429
205.050 5.110 55.848
205.090 4.830 41.710
205.100 4.160 75.827
205.120 3.970 75.541
205.130 5.440 35.829
205.150 4.730 67.284
205.160 5.090 77.004
205.180 5.830 83.660
205.300 4.930 55.669
205.310 4.270 68.009
205.320 4.700 70.330
205.530 5.330 75.963
205.540 5.600 77.691
205.550 5.180 85.276
205.570 5.760 81.703
205.580 4.180 74.156
205.590 4.860 38.028
205.600 5.140 58.265
205.610 5.240 85.057
205.640 4.480 79.320
205.650 5.120 84.131
205.670 4.530 64.144
205.690 5.330 84.548
205.700 4.430 63.220
205.710 4.410 77.598
205.720 4.250 61.266
205.730 4.990 18.705
205.740 3.860 72.054
205.750 4.620 52.905
205.760 4.620 43.389
205.770 4.500 82.358
205.780 4.580 64.789
205.790 4.010 67.737
205.800 4.050 49.869
205.810 4.730 74.404
205.820 4.230 60.923
205.840 5.340 37.212
205.850 5.710 24.689
205.870 4.830 74.040
205.880 4.930 74.968
205.910 5.320 76.606
205.930 4.590 73.678
205.960 4.790 58.573
206.000 4.690 26.474
206.010 4.490 33.340
206.020 4.520 15.912
206.030 4.550 64.731
206.040 4.910 70.607
206.050 5.930 85.526
206.090 5.180 70.313
206.100 5.830 79.543
206.110 4.710 56.566
206.150 4.300 86.371
206.160 3.860 75.896
206.170 4.370 51.297
206.180 4.050 87.002
206.190 5.100 75.496
206.200 4.500 64.694
206.210 4.760 58.471
206.220 4.890 72.397
206.230 4.480 66.236
206.240 4.450 47.816
206.250 5.200 47.572
206.260 5.050 86.192
206.270 4.630 78.212
206.280 4.230 72.602
206.290 4.210 86.381
206.300 5.090 86.581
206.320 4.710 48.323
206.340 5.200 85.578
206.350 5.430 88.340
206.390 5.280 45.124
206.400 5.140 43.021
206.410 5.230 65.838
206.420 5.780 29.769
206.430 4.740 57.633
206.440 4.590 61.112
206.450 5.170 88.723
206.480 5.540 77.644
206.500 4.250 67.085
206.510 4.460 53.538
206.540 4.560 75.263
206.580 5.040 69.617
206.590 5.100 50.137
206.600 4.460 73.100
206.610 4.650 73.783
206.620 5.570 70.846
206.740 4.630 61.917
206.750 4.680 61.032
206.780 5.000 85.924
206.790 4.530 74.939
206.830 5.430 77.047
206.840 3.960 57.978
206.880 4.900 82.162
206.890 4.390 72.086
206.900 4.840 51.882
206.910 4.700 46.516
206.920 4.460 76.518
206.930 5.420 45.676
206.940 4.790 48.416
206.950 4.370 54.313
206.960 5.090 22.602
206.970 4.750 47.247
206.980 5.730 30.702
206.990 5.230 44.825
207.000 5.410 76.224
207.010 5.100 75.174
207.020 4.660 60.549
207.030 4.530 78.569
207.050 3.710 82.700
207.060 5.520 65.778
207.280 5.500 80.556
207.290 5.180 75.221
207.300 5.410 66.501
207.310 4.950 77.315
207.470 4.240 53.534
207.490 5.210 84.564
207.500 4.820 80.618
207.510 4.920 78.509
207.530 5.130 71.206
207.540 5.690 73.833
207.550 5.650 82.298
207.560 5.120 44.737
207.570 4.710 59.600
207.580 4.530 66.920
207.590 4.020 63.101
207.600 4.870 62.870
207.620 4.550 78.059
207.630 4.250 47.970
207.640 4.850 83.758
207.650 5.440 83.939
207.680 4.100 72.070
207.690 4.110 59.199
207.700 3.770 61.504
207.710 4.080 87.881
207.720 3.870 88.567
207.750 4.240 69.740
207.760 4.810 67.513
207.770 4.200 65.065
207.780 4.020 77.097
207.790 4.400 63.055
207.830 5.370 79.508
207.850 5.370 88.228
207.870 4.540 48.036
207.890 5.040 79.590
207.900 5.190 59.517
207.910 4.120 56.995
207.920 4.600 78.555
207.930 5.750 88.405
207.940 4.640 53.280
207.950 4.430 59.304
207.960 4.370 84.285
207.980 4.270 85.481
207.990 4.480 36.956
208.000 4.700 14.268
208.010 4.530 23.460
208.020 4.860 42.220
208.030 4.000 77.640
208.040 4.290 66.531
208.060 4.590 85.884
208.070 4.180 65.996
208.090 4.980 71.230
208.100 4.960 71.281
208.110 4.280 66.411
208.120 3.910 71.743
208.130 4.700 63.064
208.140 5.410 78.022
208.150 5.150 72.981
208.210 4.930 74.663
208.240 5.610 89.869
208.290 5.600 84.595
208.440 4.820 49.257
208.450 4.460 47.685
208.460 4.730 72.216
208.470 4.710 54.142
208.480 5.110 75.288
208.490 4.270 39.612
208.500 4.570 34.962
208.510 4.570 29.158
208.520 4.160 32.323
208.530 4.350 76.459
208.540 4.470 63.505
208.550 4.710 58.704
208.560 4.900 60.994
208.580 5.950 89.445
208.590 4.110 53.822
208.600 4.360 48.343
208.610 4.760 60.968
208.620 4.000 57.005
208.630 4.370 49.843
208.640 3.820 75.364
208.650 4.220 61.051
208.670 4.530 70.047
208.680 4.490 63.238
208.700 4.330 79.259
208.710 5.120 44.133
208.720 3.890 78.109
208.730 4.160 52.635
208.740 4.180 45.260
208.750 4.260 70.129
208.760 4.120 67.336
208.770 3.990 60.636
208.780 4.430 71.433
208.790 4.170 60.642
208.800 4.380 83.191
208.810 4.180 52.684
208.820 4.210 87.606
208.830 4.410 70.139
208.840 4.500 77.618
208.850 3.670 76.798
208.860 3.860 82.513
208.870 3.680 73.013
208.930 4.450 70.755
208.940 4.410 81.705
208.960 4.250 88.626
208.970 4.130 53.804
208.990 4.260 68.484
209.000 3.940 72.653
209.010 4.320 63.827
209.020 4.680 45.786
209.030 4.160 48.029
209.040 5.060 44.492
209.050 4.510 62.726
209.060 5.120 33.662
209.070 4.650 44.362
209.080 4.450 58.673
209.090 4.420 81.209
209.100 4.180 85.459
209.110 4.270 65.174
209.120 4.130 73.103
209.130 4.680 84.291
209.140 4.360 59.452
209.150 4.760 49.514
209.160 4.520 49.845
209.170 4.420 73.575
209.180 4.260 68.046
209.190 4.390 75.327
209.200 4.180 41.447
209.210 4.410 76.681
209.220 4.980 64.968
209.230 4.330 82.713
209.240 3.960 62.412
209.250 4.490 50.714
209.260 4.020 71.410
209.270 3.670 71.338
209.280 4.410 78.138
209.290 3.890 67.963
209.300 3.830 74.719
209.310 4.400 82.691
209.320 4.310 87.703
209.330 4.010 84.191
209.340 4.010 70.195
209.350 4.360 46.992
209.360 4.190 77.744
209.370 4.460 82.922
209.380 4.280 56.562
209.390 4.500 82.873
209.540 5.430 85.656
209.570 5.030 86.069
209.580 4.380 67.822
209.600 5.030 86.087
209.610 4.130 78.007
209.620 4.570 65.196
209.640 4.080 83.127
209.660 4.890 86.217
209.670 5.330 78.752
209.690 5.110 75.323
209.700 4.910 55.008
209.710 4.280 71.796
209.730 4.240 87.672
209.780 4.910 85.774
209.810 3.790 60.853
209.820 3.630 60.621
209.830 4.100 71.631
209.860 4.190 72.653
209.870 4.270 75.878
209.890 4.760 75.079
209.900 4.450 62.891
209.910 5.120 66.831
209.920 4.740 85.557
209.930 4.950 73.883
209.940 4.170 41.495
209.960 5.000 76.309
209.970 5.030 85.732
209.990 4.510 83.109
210.000 4.930 78.716
210.010 4.440 80.520
210.020 4.440 84.517
210.030 4.600 49.027
210.040 4.880 42.129
210.050 4.070 62.693
210.060 4.740 75.786
210.070 4.850 56.573
210.100 5.110 59.504
210.110 4.530 72.646
210.120 3.740 56.053
210.130 4.880 62.561
210.140 4.110 42.947
210.150 4.710 70.849
210.160 4.440 74.752
210.170 4.530 35.667
210.180 4.330 50.478
210.190 4.400 38.801
210.200 4.360 34.546
210.210 4.470 53.509
210.220 4.240 75.880
210.230 4.760 75.934
210.240 4.390 70.377
210.260 4.660 73.863
210.270 4.380 63.259
210.280 4.670 74.435
210.290 5.750 87.461
210.310 5.260 84.059
210.320 5.140 85.775
210.340 5.290 84.788
210.350 4.260 78.706
210.360 4.470 71.377
210.370 5.050 75.577
210.390 4.050 81.898
210.400 4.320 88.474
210.410 4.480 67.433
210.420 4.210 73.729
210.460 4.290 85.696
210.470 4.620 69.399
210.480 4.040 70.043
210.490 4.400 73.611
210.500 3.870 66.711
210.510 3.860 71.786
210.530 4.360 71.860
210.580 4.400 63.149
210.600 4.830 79.995
210.620 4.680 80.679
210.630 3.810 60.955
210.640 4.330 71.699
210.650 4.770 70.661
210.660 4.530 69.026
210.670 5.070 75.125
210.690 5.240 88.891
210.710 4.570 63.340
210.720 4.450 76.677
210.730 4.120 53.322
210.740 4.590 66.489
210.750 4.360 79.215
210.760 4.770 47.965
210.770 4.240 75.999
210.780 4.250 56.321
210.790 4.610 55.464
210.800 4.110 81.871
210.810 4.460 89.465
210.820 4.150 53.659
210.830 4.520 65.128
210.860 4.320 89.255
210.870 4.170 57.285
210.880 4.250 67.474
210.890 3.770 71.342
210.900 3.910 68.971
210.920 4.220 46.508
210.930 4.220 70.076
210.940 4.200 60.117
210.950 3.930 56.235
210.960 4.070 71.676
210.970 4.350 57.497
210.980 3.980 74.102
210.990 4.090 68.755
211.020 3.770 71.590
211.030 4.040 87.473
211.040 4.320 46.353
211.050 4.170 73.659
211.060 3.950 55.000
211.070 3.950 66.851
211.080 4.210 82.580
211.090 4.440 87.776
211.100 4.210 66.393
211.110 3.910 66.464
211.120 4.500 74.096
211.140 4.010 69.126
211.150 4.100 73.288
211.160 4.280 73.326
211.170 4.370 75.916
211.180 4.500 59.265
211.190 4.480 71.796
211.200 3.790 81.059
211.210 4.170 50.251
211.220 4.290 89.626
211.230 4.320 68.467
211.240 4.810 78.083
211.250 4.030 81.332
211.260 4.270 81.735
211.270 4.270 75.130
211.280 4.040 62.165
211.290 3.900 73.510
211.310 4.170 85.512
211.320 3.950 81.926
211.330 3.980 79.021
211.340 4.340 83.914
211.350 4.100 72.697
211.360 4.320 72.200
211.370 4.100 77.188
211.380 4.990 71.861
211.390 4.390 58.684
211.400 4.120 82.920
211.410 4.050 65.458
211.430 3.870 75.804
211.450 4.340 76.263
211.460 4.130 76.549
211.480 4.420 75.792
211.490 4.770 73.725
211.500 4.090 65.864
211.510 3.950 61.516
211.520 4.780 89.050
211.530 4.650 30.352
211.540 4.280 59.060
211.570 3.980 48.953
211.580 4.130 51.443
211.590 4.140 62.188
211.600 4.190 70.866
211.610 4.330 48.516
211.620 4.680 43.605
211.630 4.050 52.474
211.640 4.250 62.056
211.650 4.390 75.065
211.660 4.130 57.446
211.670 4.140 67.916
211.680 4.130 59.817
211.690 4.020 66.800
211.700 4.080 79.243
211.710 4.420 83.197
211.720 5.020 70.824
211.730 4.120 62.409
211.740 4.540 75.322
211.750 4.210 57.709
211.760 4.580 71.266
211.770 4.160 54.152
211.780 4.050 80.261
211.790 3.980 81.805
211.820 4.360 71.012
211.830 4.230 68.232
211.840 4.400 74.035
211.850 4.170 46.672
211.860 4.390 62.486
211.870 4.320 45.338
211.880 4.320 59.527
211.890 4.790 45.602
211.900 4.740 79.072
211.910 4.160 72.907
211.930 4.490 85.886
211.940 4.360 60.786
211.950 4.290 64.328
211.960 4.300 58.344
211.970 4.270 66.830
211.980 4.510 86.986
211.990 4.210 51.046
212.000 5.110 72.359
212.020 4.500 89.624
212.040 4.580 71.057
212.050 4.030 76.751
212.070 4.370 75.507
212.090 4.280 42.501
212.100 4.950 66.363
212.110 4.880 81.823
212.120 5.130 79.487
212.130 4.280 56.251
212.140 4.460 48.113
212.150 4.380 43.089
212.160 4.510 63.705
212.170 4.080 64.162
212.180 4.050 70.701
212.190 4.040 74.439
212.200 4.320 43.808
212.210 4.110 75.098
212.220 4.220 47.808
212.250 4.220 42.225
212.260 4.250 65.838
212.270 4.630 56.932
212.280 4.430 51.344
212.290 4.530 52.537
212.300 4.280 68.891
212.310 4.330 52.469
212.320 4.370 50.644
212.330 4.540 70.561
212.340 4.530 58.190
212.350 4.380 89.140
212.360 4.610 70.939
212.370 4.770 56.698
212.380 5.550 33.359
212.390 4.540 49.597
212.400 4.120 55.961
212.410 4.150 65.852
212.420 4.980 76.270
212.430 3.980 72.490
212.440 4.250 83.776
212.450 4.180 74.352
212.490 4.240 61.555
212.500 4.080 67.245
212.510 4.990 81.481
212.520 4.530 79.270
212.530 4.460 61.366
212.540 4.060 66.489
212.550 3.920 83.263
212.570 4.330 64.083
212.590 4.300 67.110
212.600 4.540 89.559
212.610 4.230 80.553
212.630 4.020 81.805
212.640 3.860 83.287
212.660 4.600 66.591
212.670 4.680 71.268
212.690 4.510 61.077
212.720 5.040 62.894
212.730 4.980 59.644
212.740 4.580 49.744
212.750 4.370 28.998
212.760 4.250 52.167
212.770 4.350 77.575
212.790 4.120 72.989
212.800 4.250 62.672
212.810 4.770 88.479
212.830 4.080 51.753
212.840 5.090 52.452
212.850 4.060 81.862
212.870 4.330 68.686
212.880 4.310 85.096
212.890 3.930 86.442
212.900 3.940 73.553
212.910 3.830 81.262
212.930 3.920 84.449
212.940 4.000 77.355
212.960 4.080 88.279
212.970 4.010 67.714
213.000 3.890 79.682
213.010 4.070 74.932
213.020 4.460 44.839
213.050 5.720 85.173
213.090 5.850 81.885
213.100 5.400 69.137
213.210 5.430 80.279
213.300 4.610 58.983
213.320 4.470 22.089
213.330 4.150 55.987
213.340 3.970 54.635
213.350 4.220 79.752
213.360 3.910 82.293
213.390 4.040 88.296
213.410 4.020 44.545
213.420 4.300 75.060
213.430 4.370 79.893
213.440 4.070 67.830
213.460 4.180 71.219
213.470 4.830 76.005
213.480 3.960 78.629
213.490 4.100 54.935
213.500 4.200 59.059
213.520 4.460 49.134
213.530 4.350 82.102
213.540 4.460 58.108
213.570 4.790 37.247
213.580 4.340 64.510
213.590 4.500 36.605
213.600 4.860 53.771
213.610 4.700 73.781
213.620 4.310 46.184
213.630 4.220 54.156
213.640 3.980 53.032
213.650 4.610 65.264
213.700 4.550 70.269
213.720 4.580 81.936
213.740 4.460 87.071
213.770 4.310 61.398
213.780 4.240 64.255
213.790 4.460 55.349
213.800 4.530 54.721
213.820 4.400 66.802
213.830 4.640 53.148
213.840 5.100 33.421
213.850 4.480 74.262
213.860 4.390 40.869
213.870 4.690 73.591
213.890 4.630 63.931
213.900 4.450 27.608
213.910 4.190 57.315
213.920 4.480 77.671
213.940 4.450 31.149
213.950 4.810 52.264
213.960 4.360 29.213
213.970 4.600 46.088
213.980 4.180 69.542
214.000 4.350 42.964
214.010 4.360 56.060
214.020 4.700 33.585
214.030 4.800 51.068
214.040 4.390 69.578
214.050 5.300 47.411
214.060 4.390 41.269
214.070 4.410 42.855
214.080 4.770 27.458
214.090 4.200 37.249
214.100 4.400 32.541
214.110 4.740 31.160
214.120 4.810 42.237
214.130 5.150 30.749
214.140 4.130 58.602
214.150 4.130 75.573
214.160 4.360 65.213
214.170 4.390 55.706
214.180 4.310 48.292
214.190 4.830 23.247
214.200 3.910 66.201
214.210 4.970 76.180
214.220 4.800 37.995
214.230 4.780 32.205
214.240 4.800 43.495
214.250 4.220 35.628
214.260 4.040 70.256
214.270 4.730 34.463
214.280 4.660 44.611
214.290 4.460 39.072
214.300 4.540 46.676
214.310 4.380 39.929
214.320 4.680 42.119
214.330 4.650 42.129
214.340 4.570 46.443
214.350 4.620 39.458
214.360 4.590 19.065
214.370 4.420 50.069
214.380 4.420 43.802
214.390 5.470 35.314
214.400 5.140 66.853
214.410 4.660 24.321
214.420 4.570 40.245
214.430 4.240 39.949
214.440 4.430 65.664
214.450 4.440 48.968
214.460 5.610 71.865
214.470 4.570 63.908
214.480 4.360 54.657
214.490 4.580 49.817
214.510 4.750 48.088
214.520 4.330 39.393
214.530 4.820 58.859
214.540 4.480 55.618
214.550 4.510 38.295
214.560 4.790 20.188
214.570 4.720 48.902
214.580 4.530 57.462
214.590 4.730 57.027
214.600 4.770 66.854
214.610 4.450 38.536
214.620 4.810 41.229
214.630 4.790 54.591
214.640 4.450 46.942
214.650 4.610 33.968
214.660 4.720 25.830
214.670 5.120 32.081
214.680 4.490 27.744
214.690 5.040 25.240
214.700 4.600 33.451
214.710 4.860 15.151
214.720 5.300 23.940
214.730 4.520 33.297
214.740 5.330 46.704
214.750 4.630 41.869
214.760 4.220 50.716
214.770 4.720 57.053
214.780 4.590 63.790
214.790 4.680 34.673
214.800 4.430 39.035
214.810 4.600 28.026
214.820 4.740 17.796
214.830 4.570 49.887
214.840 4.630 50.936
214.850 5.010 55.539
214.860 4.580 49.686
214.870 4.440 10.510
214.880 4.370 50.090
214.890 4.740 50.546
214.900 4.530 43.831
214.910 4.790 55.081
214.920 4.780 47.792
214.930 4.880 57.538
214.940 4.320 52.144
214.950 4.790 29.671
214.960 4.530 40.004
214.970 4.360 42.123
214.980 4.420 31.736
214.990 4.390 78.965
215.000 4.480 75.704
215.010 4.300 43.015
215.020 4.330 57.716
215.030 4.310 82.748
215.050 4.630 18.924
215.060 5.130 40.149
215.070 4.960 42.162
215.080 4.810 76.672
215.090 5.120 86.035
215.100 5.200 49.555
215.110 4.170 83.664
215.120 4.130 80.801
215.130 4.450 56.476
215.140 4.510 40.981
215.150 4.330 56.081
215.160 4.390 63.681
215.170 4.590 42.276
215.180 4.350 59.545
215.190 4.150 80.856
215.200 4.230 73.894
215.210 5.100 33.292
215.220 5.430 28.296
215.230 4.960 51.294
215.240 4.920 46.703
215.250 4.750 42.067
215.260 4.950 67.227
215.270 4.240 56.176
215.280 4.790 59.648
215.290 4.780 41.419
215.300 4.820 64.104
215.320 4.360 72.485
215.360 4.150 75.417
215.380 4.310 72.042
215.390 4.530 51.762
215.400 4.400 82.603
215.410 4.730 67.714
215.420 4.890 58.275
215.440 4.590 47.735
215.450 4.290 54.174
215.460 4.410 38.080
215.470 5.330 72.655
215.480 4.900 65.723
215.490 4.580 53.111
215.500 5.310 55.233
215.520 4.790 65.756
215.530 5.990 88.311
215.540 4.880 57.046
215.550 4.250 71.177
215.560 5.680 77.612
215.570 4.790 61.699
215.580 4.290 74.931
215.590 5.520 64.985
215.600 4.560 49.696
215.610 4.880 78.389
215.620 5.290 66.366
215.630 5.100 48.904
215.640 5.060 55.022
215.650 5.200 73.893
215.710 5.410 78.762
215.740 5.680 78.024
215.750 4.720 59.024
215.840 5.160 55.759
215.850 4.820 79.087
215.860 5.230 80.586
215.870 5.230 82.769
215.970 5.000 66.607
216.260 4.990 79.702
216.280 4.360 45.558
216.290 4.390 71.955
216.300 3.770 84.972
216.330 3.860 78.446
216.340 4.130 66.875
216.350 4.060 73.081
216.360 4.570 79.556
216.420 5.460 84.333
237.210 4.830 59.000
237.220 4.580 36.952
237.230 3.930 86.728
237.240 4.610 53.766
237.250 4.830 36.670
237.310 4.790 11.882
237.320 4.470 41.070
237.370 5.660 86.888
237.510 4.200 81.834
237.530 4.180 85.948
237.550 5.270 45.163
237.570 4.530 86.940
237.610 4.360 83.207
237.620 4.550 71.211
237.670 3.860 69.473
240.240 5.280 39.970
240.250 4.970 49.931
240.260 5.270 55.482
240.270 4.990 45.513
240.280 4.260 68.242
240.290 4.160 66.997
240.340 4.960 79.030
240.350 5.130 89.019
240.370 4.850 85.643
240.380 4.510 63.815
240.390 4.430 72.573
240.400 4.460 62.168
240.410 4.170 70.087
240.420 4.540 55.280
240.460 4.250 81.206
240.470 4.900 56.742
240.480 5.570 27.608
240.490 4.470 34.788
240.500 4.170 61.083
240.510 5.040 70.456
240.520 4.670 77.857
240.530 4.400 36.656
240.540 5.420 86.632
240.550 4.790 23.771
240.560 5.210 53.141
240.570 4.460 67.039
240.590 4.400 67.125
240.600 4.150 60.618
240.610 4.000 57.949
240.620 4.490 61.218
240.630 4.280 48.546
240.650 4.460 43.802
240.670 4.320 72.836
240.680 5.560 49.716
240.690 5.100 47.267
240.700 4.540 51.081
240.710 5.650 52.834
240.720 3.960 66.868
240.730 5.410 44.654
240.740 5.060 29.407
240.750 5.330 14.972
240.770 5.010 53.391
240.780 5.240 27.211
240.790 5.200 52.317
240.810 5.230 86.588
240.820 5.140 77.142
240.830 4.550 65.112
240.840 5.250 84.973
240.850 5.080 57.488
240.860 4.080 62.300
240.870 4.680 78.358
240.890 5.710 67.264
241.020 5.960 79.548
241.100 5.500 86.836
241.110 4.580 80.735
241.120 4.170 51.151
241.130 4.230 62.762
241.140 4.540 57.133
241.150 5.610 83.948
241.160 5.360 77.194
241.170 4.580 55.439
241.180 5.200 81.163
241.210 4.170 68.989
241.220 4.960 77.625
241.260 4.670 83.302
241.270 4.760 80.908
241.310 5.920 67.794
241.320 5.900 43.752
241.330 4.820 66.048
241.340 4.160 45.546
241.350 5.440 48.678
241.360 4.710 67.691
241.370 4.480 64.806
241.460 4.490 78.914
241.470 3.890 43.475
241.480 4.240 63.023
241.500 4.510 70.081
241.510 4.180 72.979
241.520 5.300 63.621
241.590 4.820 88.836
241.720 5.100 83.774
241.840 4.440 81.227
241.900 5.050 67.242
241.960 5.490 77.238
241.970 5.600 82.539
242.000 5.510 86.596
242.010 5.030 89.346
242.150 4.690 80.144
242.230 4.310 80.659
242.240 3.850 82.125
242.260 4.030 74.683
242.350 4.530 87.871
242.530 5.630 84.227
242.560 5.160 82.885
242.630 5.750 47.532
242.680 5.460 85.071
242.760 5.170 82.373
242.770 6.000 84.371
242.800 5.340 77.517
242.850 5.140 67.112
243.140 5.590 77.862
243.210 4.710 59.340
243.220 4.600 86.304
243.230 4.440 81.713
243.280 4.310 88.429
243.290 4.440 82.929
243.310 4.400 78.727
243.320 4.750 71.887
243.340 4.270 85.818
243.360 3.950 79.308
243.390 4.570 66.528
243.450 4.690 85.555
243.570 4.120 88.581
243.600 4.240 83.209
243.620 4.310 84.188
243.670 5.350 82.755
243.690 5.720 79.134
243.750 5.110 69.763
243.810 5.240 88.843
243.820 5.980 85.502
243.970 4.010 85.521
244.120 5.630 82.098
244.130 4.600 58.755
244.160 5.980 87.816
244.450 4.760 43.163
244.460 4.810 63.038
244.470 4.970 39.336
244.480 4.720 86.823
244.570 5.910 82.484
244.660 5.840 76.498
245.000 5.490 89.030
245.720 4.910 38.415
245.870 4.860 57.080
245.900 5.160 52.323
246.060 4.750 54.299
246.070 5.130 69.049
246.080 5.100 72.537
246.150 5.780 70.746
246.200 5.550 86.631
246.210 5.920 72.307
246.220 5.690 73.222
246.230 5.480 78.489
246.240 4.700 40.403
246.270 5.030 84.445
246.280 5.030 78.189
246.380 5.640 51.211
246.390 5.630 87.056
246.430 5.240 68.323
246.440 5.110 52.174
246.450 4.410 87.892
246.530 4.320 85.665
246.540 4.870 57.908
246.550 4.210 52.152
246.560 4.680 80.521
246.570 4.880 46.235
246.580 4.250 42.210
246.590 4.450 68.416
246.600 3.980 69.020
246.610 4.760 81.770
246.630 4.390 82.465
246.650 4.630 86.556
246.660 4.060 70.072
246.670 4.620 64.736
246.680 3.740 61.834
246.690 4.470 72.779
246.700 4.540 76.283
246.710 5.590 75.132
246.720 5.150 56.554
246.730 4.460 46.087
246.740 4.250 64.490
246.770 5.220 80.197
246.780 5.350 72.555
246.790 4.280 71.213
246.800 5.070 39.183
246.810 4.790 66.280
246.830 5.110 81.343
246.840 3.870 61.775
246.850 4.570 81.037
246.860 4.260 77.918
246.870 4.520 78.929
246.880 4.740 33.177
246.890 3.850 73.388
246.900 4.300 66.548
246.910 5.000 88.285
247.200 5.240 88.704
247.240 4.240 55.327
247.250 4.430 69.485
247.260 4.070 67.241
247.270 4.760 84.922
247.290 5.510 47.502
247.300 4.620 78.295
247.310 4.360 67.232
247.320 4.610 74.981
247.330 5.690 47.232
247.340 4.110 58.689
247.350 4.170 61.007
247.360 4.840 88.078
247.370 4.480 56.686
247.380 4.060 76.932
247.390 4.390 54.164
247.400 4.470 81.167
247.410 4.020 63.271
247.420 4.600 73.310
247.430 4.480 50.176
247.440 4.990 62.833
247.450 5.420 70.998
247.460 5.230 35.648
247.470 5.220 76.477
247.490 5.320 78.302
247.500 4.400 65.861
247.510 5.040 60.273
247.520 4.390 83.834
247.530 5.190 67.874
247.540 5.970 85.574
247.570 5.800 74.761
247.580 5.210 54.517
247.590 4.660 30.796
247.600 4.440 32.810
247.610 4.430 47.898
247.620 4.400 78.408
247.640 4.880 65.321
247.660 4.480 70.842
247.670 5.450 55.448
247.680 4.360 79.098
247.700 5.350 86.689
247.730 4.370 55.692
247.740 4.460 62.934
247.780 5.680 81.417
247.890 4.780 84.179
247.900 4.030 62.490
247.910 4.520 58.690
247.920 4.230 87.500
247.930 4.940 68.610
247.940 4.680 83.599
247.990 4.790 82.098
248.000 4.290 69.707
248.010 4.190 65.272
248.040 5.100 81.528
248.050 4.710 56.575
248.060 4.050 59.831
248.070 4.870 61.563
248.080 4.020 58.731
248.090 4.290 64.318
248.120 5.730 88.355
248.130 5.650 83.697
248.140 5.510 84.698
248.150 4.570 80.498
248.160 4.550 88.346
248.180 5.330 88.519
248.200 5.350 74.466
248.210 4.760 73.805
248.220 4.450 80.212
248.230 5.140 78.752
248.330 5.530 75.313
248.340 5.520 86.469
248.360 5.850 82.832
248.370 4.470 74.351
248.390 4.550 84.504
248.400 4.460 89.846
248.460 5.150 70.913
248.470 5.790 57.033
248.560 3.980 87.032
248.960 5.460 81.492
249.100 5.500 84.786
249.110 5.610 85.933
249.120 5.580 80.350
249.160 5.480 85.254
249.180 5.240 84.975
249.230 5.990 82.468
249.250 5.880 81.169
249.260 4.850 75.480
249.290 5.500 78.967
249.310 5.810 70.825
249.360 5.820 77.666
249.510 5.630 71.489
249.520 5.840 51.793
249.530 5.240 28.220
249.550 5.950 17.358
249.650 5.680 14.371
249.680 5.810 27.561
249.690 4.230 65.075
249.700 5.090 30.054
249.710 5.240 42.460
249.720 5.160 45.337
249.730 3.860 63.872
249.740 4.240 72.038
249.760 4.220 61.170
249.770 5.000 41.638
249.860 5.150 89.500
249.940 4.450 67.220
249.950 4.980 88.782
249.960 4.350 77.043
249.990 4.530 50.768
250.000 4.060 44.639
250.010 3.950 76.989
250.020 5.340 29.934
250.030 5.270 84.550
250.040 4.660 77.966
250.050 4.720 77.193
250.060 4.890 87.307
250.090 4.790 71.781
250.100 4.160 87.096
250.110 4.060 66.078
250.120 4.640 77.125
250.140 4.000 61.829
250.160 4.710 70.352
250.170 4.670 76.880
250.180 5.350 87.049
250.200 4.220 63.489
250.210 4.900 82.405
250.230 4.490 54.484
250.250 4.050 47.659
250.260 4.670 79.498
250.270 4.050 62.877
250.280 4.660 74.588
250.290 5.320 73.491
250.300 4.090 80.153
250.310 4.340 69.837
250.320 4.610 62.909
250.330 4.060 75.993
250.340 4.190 60.325
250.350 4.960 68.915
250.360 4.070 75.823
250.370 4.230 59.890
250.400 4.120 87.480
250.410 4.780 73.651
250.420 3.920 42.397
250.430 4.270 70.850
250.440 4.520 50.766
250.450 3.940 69.933
250.460 5.250 72.458
250.590 5.270 72.367
250.620 4.630 62.583
250.630 4.110 86.949
250.640 3.990 81.655
250.650 5.780 31.558
250.750 5.560 23.600
250.820 5.750 80.547
250.860 5.550 86.600
251.000 5.850 78.282
251.010 5.860 75.247
251.030 5.830 78.656
251.050 5.940 86.818
251.090 5.070 89.258
251.110 5.810 79.360
251.160 3.760 87.355
251.180 5.120 85.015
251.240 4.410 76.665
251.260 4.510 72.091
251.380 5.650 78.396
251.390 5.830 63.454
251.510 5.500 81.796
251.520 5.840 79.006
251.530 5.930 74.306
251.560 5.680 82.267
251.570 5.470 82.841
251.770 4.810 87.205
251.780 5.780 79.068
251.820 5.790 72.584
251.910 4.770 61.278
251.930 5.170 82.941
252.010 4.670 78.455
252.100 4.310 89.446
252.140 4.440 86.919
252.320 4.130 83.199
252.360 5.390 82.024
252.380 5.300 82.216
252.540 3.950 79.708
252.590 5.700 52.103
252.650 4.400 63.644
252.660 4.550 81.694
252.670 4.970 73.774
252.690 4.130 89.888
252.700 4.170 79.019
252.740 3.870 78.482
252.790 5.140 77.229
252.800 5.350 81.445
253.090 5.790 75.840
253.180 5.290 77.336
253.230 5.890 82.896
253.300 4.990 78.208
253.310 5.350 63.111
253.440 5.800 76.630
253.460 5.530 68.458
253.520 5.990 79.489
253.530 5.400 85.157
253.540 5.840 85.543
253.650 5.730 80.118
253.750 4.940 69.790
253.760 4.050 83.926
253.770 4.270 88.780
253.790 5.600 50.338
253.850 5.610 85.481
253.870 5.690 79.976
253.920 5.880 81.481
253.950 5.760 74.634
253.980 5.800 73.405
253.990 5.540 88.308
254.000 4.890 77.430
254.010 5.750 76.704
254.020 5.580 83.355
254.030 5.540 71.819
254.040 5.830 66.712
254.060 5.120 89.654
254.100 5.580 64.271
254.150 5.290 86.174
254.170 5.850 61.830
254.180 5.360 76.812
254.190 4.490 88.496
254.200 5.800 82.793
254.210 5.240 74.112
254.220 3.970 89.024
254.240 3.930 82.637
254.250 3.760 86.193
254.300 5.080 82.955
254.310 5.810 60.957
254.320 5.430 70.621
254.340 5.870 62.500
254.570 4.250 88.256
254.600 4.090 88.705
254.610 4.250 70.919
254.620 3.830 57.515
254.650 4.130 83.355
254.660 4.040 80.364
254.670 4.120 84.058
254.680 3.640 69.858
254.690 4.460 59.899
254.700 4.590 68.636
254.710 5.030 37.418
254.720 5.430 9.999
254.730 4.890 55.694
254.740 4.590 60.639
254.760 4.570 38.055
254.770 3.950 40.533
254.790 3.990 61.561
254.810 4.280 72.962
254.820 3.810 66.312
254.840 4.700 61.538
254.850 4.790 55.806
254.860 4.820 61.910
254.880 4.970 80.582
254.900 5.220 48.092
254.910 5.250 85.854
254.930 4.460 71.123
254.940 4.630 79.813
254.990 5.580 63.336
255.040 4.030 75.925
255.050 4.590 64.740
255.060 4.410 73.607
255.070 4.130 72.719
255.080 4.210 76.509
255.090 4.410 44.878
255.150 5.940 89.433
255.160 5.580 77.696
255.210 4.120 70.982
255.220 4.850 83.586
255.230 4.310 66.498
255.240 4.380 88.896
255.250 4.330 58.246
255.260 4.280 40.815
255.270 4.360 66.702
255.280 4.210 68.735
255.320 4.770 80.618
255.330 4.190 75.691
255.350 4.490 68.126
255.360 4.770 81.382
255.370 4.700 68.162
255.380 4.210 35.588
255.390 5.060 50.366
255.400 4.810 12.833
255.410 4.190 73.988
255.420 4.000 65.650
255.430 4.550 86.107
255.440 4.390 50.108
255.450 4.420 43.717
255.460 4.350 82.813
255.470 4.140 84.301
255.480 4.190 39.621
255.490 4.480 85.302
255.500 4.710 63.670
255.510 4.430 45.424
255.520 5.300 88.680
255.550 4.210 55.905
255.560 5.120 72.384
255.570 4.250 69.528
255.580 4.530 78.990
255.590 4.540 63.674
255.630 4.450 75.357
255.640 4.680 66.704
255.650 4.690 73.589
255.660 4.470 53.766
255.670 4.760 27.719
255.680 3.990 65.880
255.690 4.110 61.618
255.700 4.560 47.627
255.710 3.970 70.148
255.720 4.280 55.986
255.730 4.620 62.323
255.740 4.540 81.903
255.750 4.960 52.188
255.760 4.330 69.191
255.770 4.370 44.787
255.780 4.170 47.632
255.790 4.380 50.365
255.800 4.350 51.467
255.810 4.550 31.929
255.820 4.890 65.349
255.830 5.340 39.997
255.840 4.870 45.563
255.850 4.470 87.311
255.860 4.150 66.972
255.870 4.680 48.476
255.880 4.680 33.808
255.890 4.560 66.785
255.900 4.530 43.049
255.910 4.880 14.907
255.920 4.080 63.097
255.930 4.650 64.971
255.970 4.420 65.878
255.980 4.410 59.670
255.990 4.430 73.109
256.000 4.490 21.021
256.010 4.500 60.609
256.020 4.770 33.619
256.030 4.330 43.030
256.050 4.430 89.843
256.080 4.650 29.872
256.090 4.420 66.163
256.100 5.360 89.307
256.110 4.790 44.978
256.120 4.770 19.187
256.130 5.350 44.652
256.140 4.200 69.712
256.150 4.500 64.831
256.160 4.780 56.634
256.170 4.650 31.971
256.180 4.660 32.546
256.190 4.940 43.449
256.200 5.230 26.486
256.210 4.340 52.927
256.220 4.640 34.090
256.230 4.620 62.981
256.240 4.240 72.966
256.250 4.880 38.930
256.270 4.430 39.397
256.280 4.500 71.835
256.290 3.960 89.476
256.310 4.090 80.023
256.320 4.240 76.237
256.330 4.260 75.373
256.360 5.080 73.776
256.370 5.340 61.024
256.410 4.310 54.788
256.420 4.600 76.664
256.430 4.540 65.737
256.440 4.720 40.933
256.450 4.290 53.981
256.460 4.250 82.460
256.470 4.250 40.098
256.480 4.700 35.874
256.490 4.150 54.869
256.500 4.750 60.043
256.510 4.790 75.542
256.520 3.880 81.884
256.540 5.200 86.119
256.560 4.390 85.819
256.580 5.120 74.194
256.590 4.420 79.762
256.610 5.210 69.905
256.620 5.480 80.499
256.640 5.400 83.706
256.650 4.630 83.207
256.680 4.370 63.584
256.690 4.350 69.025
256.700 4.630 73.937
256.710 4.700 45.221
256.720 4.290 74.107
256.730 4.560 49.399
256.740 5.600 86.299
256.760 5.220 68.423
256.800 5.200 69.036
256.810 4.900 64.492
256.820 4.030 63.573
256.830 4.150 60.299
256.840 4.770 89.504
256.850 5.360 77.782
256.860 4.110 75.366
256.870 4.380 76.576
256.880 5.480 76.669
256.890 4.880 59.922
256.900 4.270 77.450
256.910 4.400 55.625
256.920 3.960 80.700
256.930 4.860 64.841
256.940 5.000 68.809
256.950 4.420 85.477
256.960 4.490 37.536
256.970 4.640 25.098
256.980 4.150 59.627
256.990 4.890 29.316
257.000 5.130 80.239
257.010 5.000 83.383
257.020 4.380 56.730
257.030 4.380 49.690
257.040 4.470 53.539
257.050 4.570 47.306
257.060 4.700 82.062
257.070 4.620 51.331
257.080 4.790 25.834
257.090 4.570 48.217
257.100 4.870 65.604
257.110 5.690 56.494
257.120 4.480 35.776
257.130 5.070 52.905
257.140 4.340 46.771
257.150 5.240 78.904
257.160 4.860 49.986
257.170 5.860 39.403
257.180 4.600 49.949
257.190 5.620 23.672
257.200 5.630 13.948
257.210 5.860 80.700
257.220 4.760 26.162
257.230 4.820 41.437
257.240 4.810 31.816
257.250 4.770 40.471
257.260 4.580 69.072
257.270 4.770 12.330
257.280 5.150 29.036
257.290 4.580 37.681
257.300 4.850 51.942
257.310 4.530 50.477
257.320 4.220 66.702
257.330 3.890 50.632
257.340 4.050 56.021
257.350 4.920 44.885
257.360 4.710 62.125
257.370 5.190 62.955
257.380 4.220 67.780
257.390 4.640 23.600
257.400 4.670 47.197
257.410 4.660 24.617
257.420 4.550 34.581
257.430 4.600 46.397
257.440 4.300 34.532
257.450 4.540 51.022
257.460 4.320 79.795
257.470 4.580 60.154
257.480 4.690 51.150
257.490 4.540 36.401
257.500 4.500 29.792
257.510 4.380 65.893
257.520 4.200 71.889
257.530 4.500 50.085
257.540 4.530 44.583
257.550 4.400 39.881
257.560 4.260 30.482
257.570 5.080 28.374
257.580 4.840 19.141
257.590 4.730 44.710
257.600 4.550 48.843
257.610 4.230 59.643
257.620 4.120 44.926
257.630 4.310 44.390
257.640 4.340 61.398
257.650 4.360 51.018
257.660 5.560 87.579
257.670 4.250 62.689
257.680 4.690 53.148
257.690 4.330 41.959
257.700 4.520 29.158
257.710 4.510 53.362
257.720 4.060 68.521
257.730 4.740 51.472
257.740 4.530 50.597
257.750 4.560 63.809
257.760 4.540 56.080
257.770 4.420 68.549
257.790 5.050 65.874
257.800 4.150 42.806
257.810 4.060 82.652
257.860 3.850 78.874
257.870 3.870 80.051
257.880 4.030 54.239
257.890 3.700 76.609
257.900 4.150 70.365
257.920 4.470 55.173
257.930 4.240 56.320
257.940 4.020 65.853
257.960 3.890 82.251
257.970 3.880 89.919
257.980 3.890 88.447
258.010 5.100 85.923
258.030 4.000 74.871
258.040 4.110 72.937
258.050 3.930 63.502
258.060 3.930 72.731
258.070 4.460 73.722
258.080 4.310 59.794
258.100 4.490 77.373
258.110 4.590 81.610
258.130 3.860 69.479
258.140 4.090 80.565
258.150 3.850 85.738
258.160 3.690 78.592
258.170 4.210 86.966
258.180 4.620 69.840
258.190 4.740 59.062
258.200 4.970 88.323
258.210 5.440 77.735
258.220 5.510 47.926
258.230 5.110 46.175
258.240 4.940 36.520
258.250 5.060 43.929
258.260 5.950 58.119
258.280 4.780 58.514
258.290 5.670 80.647
258.300 4.890 72.739
258.310 5.530 58.112
258.340 4.830 69.576
258.350 5.350 72.775
258.370 5.280 61.327
258.420 5.420 80.140
258.440 5.330 73.421
258.450 5.580 55.988
258.460 4.790 71.169
258.470 5.070 62.849
258.480 5.050 81.070
258.490 5.940 81.782
258.500 5.050 81.075
258.520 5.030 77.817
258.530 5.040 78.646
258.560 5.060 64.335
258.570 4.780 70.562
258.580 5.080 81.508
258.590 4.980 87.270
258.600 5.070 74.419
258.610 5.170 81.848
258.630 5.010 65.741
258.640 5.150 76.139
258.660 5.280 73.181
258.670 5.650 70.145
258.680 5.040 82.673
258.690 5.230 78.323
258.700 5.330 71.826
258.720 5.000 82.326
258.730 5.420 78.926
258.750 4.280 55.719
258.760 5.850 87.898
258.770 4.990 51.218
258.780 3.900 75.540
258.790 3.770 66.779
258.800 3.860 86.839
258.810 3.740 84.145
258.830 5.800 75.033
259.000 4.580 71.307
259.010 5.180 77.465
259.030 4.800 59.924
259.040 5.910 88.045
259.160 5.480 80.344
259.170 5.200 88.945
259.190 5.240 88.765
259.200 5.050 76.852
259.210 4.130 66.935
259.240 5.280 62.033
259.250 4.120 75.263
259.260 4.390 53.633
259.270 4.200 52.971
259.280 4.490 74.933
259.330 4.190 65.579
259.340 3.820 78.739
259.350 5.080 78.708
259.380 4.730 67.537
259.390 5.240 86.904
259.400 4.790 81.034
259.410 4.850 56.145
259.420 5.270 52.944
259.430 5.030 74.778
259.450 5.440 45.008
259.460 4.080 67.643
259.470 4.120 77.466
259.480 4.080 61.598
259.490 4.180 61.495
259.500 4.330 78.384
259.510 4.840 60.201
259.530 4.790 49.326
259.540 5.280 56.893
259.570 4.770 57.067
259.580 5.310 49.596
259.590 4.440 37.037
259.600 4.790 51.177
259.610 5.090 89.268
259.620 4.340 76.362
259.630 4.430 80.725
259.640 5.570 82.242
259.650 4.380 76.064
259.660 4.480 71.031
259.670 5.330 78.211
259.680 4.320 67.400
259.690 4.340 51.871
259.700 4.680 70.275
259.710 4.120 84.870
259.750 3.970 63.972
259.760 4.490 67.458
259.770 3.690 83.319
259.780 4.010 75.882
259.790 4.400 89.611
259.800 3.740 65.421
259.820 4.410 53.765
259.830 4.620 78.993
259.840 3.980 59.912
259.850 3.600 78.072
259.860 3.700 71.967
259.870 4.190 62.114
259.880 3.980 36.847
259.890 4.320 41.617
259.910 5.870 25.309
259.920 4.610 78.696
259.930 5.360 60.593
259.940 5.880 77.864
259.950 5.830 85.198
259.960 4.460 85.666
259.990 5.340 64.844
260.010 5.190 83.558
260.030 4.980 60.643
260.040 4.790 79.029
260.050 4.380 87.599
260.060 5.130 85.101
260.080 4.300 83.541
260.090 4.290 82.461
260.100 4.800 88.480
260.130 4.920 85.645
260.150 4.340 71.715
260.190 4.180 83.786
260.210 4.930 68.198
260.230 4.470 54.637
260.240 3.660 84.681
260.250 4.430 78.955
260.420 4.780 74.401
260.490 4.070 81.972
260.500 4.250 70.530
260.510 4.700 84.744
260.540 5.070 58.599
260.550 4.850 88.652
260.560 4.450 85.715
260.570 4.570 63.401
260.580 4.620 67.960
260.590 4.780 63.811
260.600 5.380 59.830
260.610 5.360 20.470
260.620 5.890 76.119
260.630 4.910 57.174
260.640 5.160 68.941
260.650 5.630 73.204
260.660 4.660 32.105
260.670 4.770 36.757
260.680 4.820 23.018
260.690 4.320 43.956
260.700 5.070 83.234
260.720 5.370 53.039
260.730 4.480 43.579
260.740 4.750 65.326
260.750 4.550 54.424
260.760 5.120 50.377
260.770 5.130 43.788
260.780 5.580 45.503
260.800 4.690 36.373
260.820 5.140 59.333
260.830 4.640 34.147
260.840 5.420 43.373
260.870 5.520 18.433
260.890 4.410 37.648
260.900 5.190 47.833
260.910 5.070 48.256
260.920 5.060 32.586
260.930 5.140 53.768
260.950 5.940 79.526
260.960 5.460 50.455
260.970 4.840 65.263
260.990 5.220 83.590
261.000 4.980 67.070
261.010 5.320 73.386
261.020 5.260 84.147
261.130 4.980 86.368
261.140 5.280 81.088
261.150 5.110 78.035
261.160 5.080 84.206
261.170 5.040 69.644
261.180 4.230 84.524
261.190 4.290 66.394
261.200 3.960 72.718
261.210 4.180 79.585
261.220 3.880 76.772
261.230 4.030 79.259
261.240 4.260 65.183
261.250 4.720 73.217
261.260 4.900 54.763
261.280 4.550 63.691
261.290 4.550 29.164
261.300 5.420 67.285
261.310 5.970 66.182
261.320 4.910 40.317
261.330 4.580 33.293
261.340 4.780 67.871
261.350 3.670 79.217
261.370 4.080 46.136
261.380 3.970 68.834
261.390 4.330 57.868
261.400 5.100 70.542
261.410 3.950 66.672
261.430 3.800 76.137
261.440 3.780 68.698
261.450 3.810 67.711
261.460 3.840 70.276
261.470 3.980 63.514
261.480 3.980 51.818
261.490 3.950 71.255
261.500 4.010 49.334
261.510 4.140 38.326
261.530 3.860 88.244
261.540 4.190 43.058
261.550 4.310 54.797
261.560 4.420 57.367
261.570 4.300 32.651
261.580 4.140 42.775
261.590 5.370 58.139
261.600 4.200 78.675
261.610 4.400 41.339
261.620 4.650 71.056
261.630 3.820 80.778
261.650 3.890 64.284
261.660 4.020 77.462
261.670 4.170 76.672
261.680 4.370 54.834
261.690 4.510 88.474
261.700 4.130 83.045
261.710 3.980 68.617
261.720 5.040 74.843
261.730 4.740 81.924
261.740 4.970 61.463
261.750 4.860 47.604
261.760 4.750 79.294
261.770 4.460 72.654
261.780 4.150 60.831
261.810 4.160 72.220
261.840 4.090 86.874
261.860 4.110 65.938
261.870 5.080 72.817
261.880 4.980 78.804
261.930 5.900 79.333
262.000 4.540 69.316
262.010 4.190 73.748
262.020 3.910 46.966
262.030 4.540 82.513
262.060 5.610 86.736
262.100 5.310 88.879
262.110 4.820 80.623
262.120 4.440 60.963
262.130 4.870 68.254
262.140 4.790 80.744
262.160 5.350 80.899
262.270 4.810 78.270
262.280 4.810 61.309
262.290 5.050 73.935
262.300 4.270 57.764
262.310 4.770 30.302
262.320 4.810 41.296
262.330 4.440 31.619
262.340 4.550 55.689
262.350 4.170 44.256
262.360 4.510 38.912
262.370 4.840 40.143
262.380 4.660 54.429
262.390 4.560 48.259
262.400 4.430 18.101
262.410 5.040 57.167
262.420 4.810 53.876
262.430 4.350 48.149
262.440 4.270 65.883
262.450 4.210 62.338
262.460 4.310 29.672
262.470 4.670 51.449
262.480 4.220 67.697
262.490 4.650 59.991
262.500 4.370 59.624
262.510 4.700 48.467
262.520 4.420 44.293
262.530 4.050 76.940
262.550 4.780 88.357
262.560 5.130 86.885
262.570 4.510 50.836
262.580 4.850 63.734
262.590 4.320 83.377
262.600 4.260 70.773
262.610 4.560 48.018
262.620 4.210 56.512
262.630 4.370 88.028
262.640 4.880 41.916
262.650 4.850 56.371
262.660 4.590 67.067
262.670 4.590 71.517
262.680 4.860 44.245
262.690 4.080 58.420
262.700 4.640 54.065
262.710 4.700 32.555
262.720 4.890 30.327
262.730 4.060 72.606
262.740 4.360 85.315
262.750 4.380 46.317
262.760 4.590 59.204
262.770 4.280 78.019
262.790 4.800 71.221
262.800 5.230 48.271
262.830 5.030 63.937
262.840 4.390 37.868
262.850 4.410 37.403
262.860 4.510 47.440
262.870 4.400 59.058
262.880 4.750 83.252
262.890 4.980 63.988
262.900 4.590 19.383
262.910 4.270 55.508
262.920 4.320 57.272
262.930 4.280 61.129
262.940 4.480 66.599
262.950 4.370 53.470
262.960 4.290 43.210
262.970 4.020 53.650
262.980 4.810 72.391
262.990 4.600 47.720
263.000 4.320 47.104
263.010 4.820 37.046
263.020 4.540 73.639
263.060 4.640 70.195
263.070 4.610 55.140
263.080 4.970 45.101
263.120 4.560 51.055
263.130 4.740 77.560
263.140 4.870 73.310
263.150 4.570 60.778
263.160 5.120 50.439
263.170 4.790 56.821
263.180 4.170 80.993
263.190 5.320 86.774
263.200 3.730 82.288
263.210 4.190 44.973
263.230 4.230 88.235
263.250 4.380 86.606
263.260 4.400 65.990
263.270 4.600 83.860
263.300 4.010 75.275
263.330 4.780 81.984
263.340 4.660 68.360
263.360 4.460 78.542
263.370 4.150 53.409
263.380 4.210 69.242
263.390 4.520 60.028
263.400 4.290 80.783
263.410 4.730 76.738
263.420 4.670 60.887
263.430 5.360 46.066
263.440 5.130 39.981
263.450 4.700 63.453
263.460 4.710 71.854
263.470 4.400 49.607
263.520 4.230 75.517
263.530 3.770 86.819
263.550 3.830 84.891
263.580 3.840 85.038
263.590 4.250 85.768
263.600 4.260 76.120
263.610 4.100 86.063
263.620 4.370 88.646
263.630 4.630 75.578
263.680 4.290 87.551
263.690 3.810 69.787
263.700 4.200 89.940
263.710 4.030 89.808
263.730 4.060 79.160
263.740 4.100 71.680
263.750 4.210 65.744
263.760 4.320 41.807
263.770 4.650 54.395
263.780 4.510 28.855
263.790 3.990 61.821
263.800 4.330 48.617
263.810 4.500 82.707
263.820 4.120 54.922
263.830 4.640 48.447
263.840 4.480 86.784
263.850 4.150 80.853
263.860 4.070 80.044
263.940 5.190 84.500
263.950 4.780 83.569
263.960 4.240 79.372
263.970 4.260 77.023
264.010 4.680 80.766
264.020 4.820 49.446
264.050 4.640 67.887
264.060 4.310 59.174
264.080 4.390 75.965
264.090 4.310 51.649
264.100 4.080 87.568
264.110 4.550 86.937
264.120 4.690 18.002
264.130 4.700 39.140
264.140 4.400 40.701
264.150 4.180 51.887
264.160 4.110 67.740
264.170 4.280 60.380
264.180 4.960 78.765
264.190 4.540 55.215
264.200 4.160 37.753
264.210 4.480 73.231
264.220 4.620 63.710
264.230 4.750 41.926
264.240 5.200 29.489
264.250 4.100 68.606
264.260 4.460 34.413
264.270 4.360 34.773
264.280 4.500 16.558
264.290 4.310 61.291
264.300 4.310 57.679
264.310 4.220 41.437
264.320 4.310 71.060
264.330 4.450 80.862
264.340 4.450 53.733
264.350 4.220 68.101
264.360 4.680 60.139
264.370 4.310 57.751
264.380 4.230 49.841
264.390 4.160 44.065
264.400 4.260 68.589
264.410 4.510 45.436
264.420 4.720 38.203
264.430 4.260 32.110
264.440 4.580 44.552
264.450 4.690 37.736
264.460 4.540 56.007
264.470 4.540 49.222
264.480 4.130 46.747
264.490 4.270 18.231
264.500 4.480 44.516
264.510 5.190 60.697
264.520 4.480 61.425
264.530 4.540 73.495
264.540 4.070 58.402
264.550 4.510 80.009
264.570 4.830 77.811
264.580 4.590 36.080
264.590 3.950 87.879
264.600 4.190 64.360
264.620 4.350 88.335
264.630 4.350 67.837
264.640 4.420 60.359
264.650 4.570 57.589
264.660 4.630 71.451
264.670 4.340 49.215
264.680 5.160 52.686
264.690 4.890 38.647
264.700 4.840 72.186
264.710 5.150 65.097
264.720 5.500 64.525
264.730 4.770 51.866
264.740 4.670 64.615
264.750 3.830 76.872
264.760 4.620 61.635
264.770 4.470 56.920
264.780 4.150 77.450
264.790 4.950 41.471
264.800 4.460 53.628
264.810 4.780 78.776
264.830 5.010 78.235
265.000 5.880 86.120
265.010 5.230 78.959
265.050 4.450 47.718
265.060 4.080 58.550
265.070 3.730 86.278
265.090 4.370 87.714
265.100 3.900 61.346
265.110 3.910 70.529
265.130 3.930 78.016
265.140 4.100 75.144
265.150 3.820 68.389
265.180 4.250 84.532
265.190 4.200 80.531
265.200 4.030 59.482
265.210 3.830 74.275
265.220 4.400 74.242
265.230 4.170 58.480
265.240 4.550 85.639
265.250 4.630 65.448
265.260 4.270 66.569
265.270 3.980 80.434
265.280 4.280 77.695
265.290 4.950 65.494
265.300 4.280 82.909
265.310 5.070 82.262
265.320 4.310 64.680
265.330 4.150 68.358
265.370 4.090 58.220
265.380 4.100 85.005
265.400 4.030 84.986
265.410 4.030 77.140
265.420 4.220 78.602
265.430 4.500 68.870
265.450 4.580 74.230
265.460 3.800 87.536
265.470 3.620 86.092
265.480 4.180 61.111
265.510 4.310 62.051
265.520 4.110 72.585
265.530 3.790 89.914
265.540 3.960 78.921
265.550 4.090 68.887
265.560 4.350 79.248
265.570 3.880 76.246
265.580 4.130 34.381
265.590 4.300 40.222
265.600 4.200 56.725
265.610 4.010 57.415
265.620 4.620 59.184
265.630 4.980 30.896
265.640 5.260 77.973
265.650 4.430 39.701
265.660 4.140 75.015
265.670 3.990 79.303
265.680 4.460 59.163
265.690 4.530 68.126
265.700 4.450 82.231
265.710 4.510 61.094
265.720 4.860 78.062
265.730 5.210 19.393
265.740 4.730 40.275
265.750 4.410 61.149
265.760 5.190 69.730
265.770 5.220 75.084
265.780 4.290 69.178
265.790 4.240 84.180
265.800 4.350 71.359
265.810 4.330 88.736
265.820 4.400 50.872
265.830 4.290 44.860
265.840 4.210 39.946
265.850 4.190 30.863
265.860 3.880 64.405
265.870 4.970 41.710
265.880 4.230 44.717
265.890 3.840 63.470
265.900 4.750 82.866
265.910 4.750 52.503
265.930 4.340 52.517
265.940 4.990 66.762
265.950 4.820 62.999
265.960 4.060 71.118
265.970 4.350 78.356
265.980 4.310 70.057
266.000 5.310 74.369
266.010 5.130 76.046
266.020 5.430 88.961
266.030 4.250 60.408
266.040 4.720 83.278
266.050 4.310 33.494
266.060 4.770 87.826
266.070 4.980 84.080
266.080 4.360 60.552
266.090 5.140 80.301
266.110 4.460 34.273
266.120 4.250 59.999
266.130 4.070 71.124
266.140 4.010 60.721
266.150 3.780 75.706
266.170 4.330 87.559
266.190 4.720 60.724
266.200 4.430 59.885
266.210 4.520 44.961
266.220 5.000 82.031
266.230 4.500 31.313
266.240 4.550 72.282
266.250 4.980 68.535
266.260 4.790 73.809
266.270 4.600 83.676
266.280 4.280 74.000
266.320 4.350 51.010
266.330 4.230 82.191
266.340 4.310 78.437
266.350 4.120 29.709
266.370 3.780 80.958
266.390 3.890 63.709
266.400 5.090 48.385
266.410 4.510 72.531
266.420 4.200 71.437
266.430 5.010 86.211
266.470 4.090 80.559
266.490 4.350 63.590
266.500 4.150 59.770
266.510 4.360 58.723
266.520 4.490 46.392
266.540 4.200 73.622
266.550 4.600 60.207
266.560 4.030 56.115
266.570 4.050 36.396
266.580 4.400 52.522
266.590 5.230 70.630
266.600 4.540 76.642
266.610 4.970 51.407
266.620 4.090 62.687
266.630 4.440 73.677
266.640 4.550 42.768
266.650 4.200 49.675
266.660 4.280 67.112
266.670 5.060 75.521
266.680 4.430 67.717
266.740 4.700 74.799
266.750 4.670 50.746
266.760 4.210 77.273
266.780 4.440 59.134
266.790 4.280 54.708
266.800 4.190 64.252
266.810 3.910 69.068
266.820 4.040 68.069
266.850 4.340 81.163
266.860 4.040 63.608
266.870 4.280 63.894
266.880 5.020 81.096
266.890 4.250 54.891
266.900 4.050 56.178
266.910 4.220 63.312
266.930 4.340 74.414
266.940 4.400 62.683
266.950 4.260 77.160
266.960 4.310 87.279
266.970 4.350 84.266
266.990 4.150 72.916
267.000 3.920 89.639
267.010 4.160 82.394
267.020 3.980 76.551
267.030 4.710 69.669
267.040 4.330 55.965
267.050 5.270 13.813
267.080 4.170 38.309
267.090 4.370 42.209
267.110 4.510 59.051
267.120 4.350 79.071
267.130 4.430 77.617
267.140 4.540 71.390
267.150 4.320 84.940
267.170 4.170 77.349
267.180 4.650 80.019
267.190 4.830 83.704
267.200 4.110 47.479
267.220 3.980 76.602
267.230 3.800 80.401
267.240 4.380 74.597
267.250 4.040 87.236
267.260 4.240 72.329
267.270 4.160 64.816
267.280 4.760 76.015
267.290 5.700 74.620
267.320 5.040 65.382
267.330 5.010 80.418
267.340 4.900 81.707
267.350 4.260 76.343
267.370 4.500 78.485
267.410 4.980 81.148
267.460 4.410 55.505
267.470 4.160 61.797
267.480 3.870 80.106
267.490 4.580 47.923
267.500 4.060 53.820
267.510 4.460 75.407
267.520 4.580 49.186
267.530 4.530 61.358
267.540 5.190 51.785
267.550 4.950 42.676
267.560 4.760 68.907
267.570 4.370 38.875
267.580 4.840 77.596
267.590 4.540 86.949
267.600 4.100 69.843
267.610 4.460 37.418
267.620 4.060 68.990
267.630 4.770 44.023
267.640 5.360 86.544
267.650 4.630 63.403
267.670 5.810 86.212
267.690 5.740 88.605
267.700 4.970 68.717
267.710 4.440 53.808
267.720 4.280 61.613
267.730 4.750 79.102
267.740 4.870 56.506
267.750 4.980 55.815
267.760 4.550 41.353
267.770 4.630 48.893
267.780 5.060 58.965
267.790 4.890 55.632
267.800 4.680 72.599
267.810 5.140 33.928
267.820 5.970 19.880
267.880 5.910 66.957
267.920 5.360 87.600
267.950 5.580 42.534
268.010 4.700 33.003
268.020 4.650 28.937
268.030 4.280 41.806
268.040 5.000 38.933
268.050 5.700 10.926
268.070 5.770 45.825
268.080 5.280 17.952
268.090 5.270 29.284
268.100 5.660 36.232
268.120 4.820 27.353
268.130 5.620 38.251
268.140 5.890 36.107
268.150 6.000 27.474
268.160 5.470 34.247
271.330 4.780 68.068
271.340 5.420 71.230
271.350 4.830 30.028
271.360 4.570 43.451
271.370 5.280 46.537
271.380 5.390 84.971
271.390 5.150 64.847
271.400 5.230 54.728
271.410 5.520 45.800
271.420 5.460 71.121
271.430 5.390 63.683
271.450 4.390 34.556
271.460 4.810 49.333
271.470 4.670 36.274
271.480 4.620 41.700
271.490 5.900 69.070
271.570 5.580 32.280
271.580 4.910 35.419
271.590 4.390 28.029
271.600 4.650 36.097
271.620 5.200 30.049
271.630 5.270 34.462
271.640 4.810 29.832
271.650 5.380 60.124
271.660 4.490 30.866
271.670 4.950 11.920
271.680 5.660 33.940
271.690 4.740 55.938
271.700 4.960 42.286
271.720 5.100 32.688
271.730 4.460 45.608
271.740 5.320 55.836
271.750 4.620 64.385
271.760 4.850 46.946
271.880 4.490 49.048
271.890 4.330 41.735
271.900 5.460 55.942
271.910 5.020 52.805
271.920 5.580 36.630
271.930 4.960 30.162
271.940 5.090 54.780
271.980 4.640 61.562
271.990 5.930 77.563
272.000 4.330 58.059
272.010 4.790 72.112
272.020 4.730 57.093
272.030 4.470 25.154
272.040 4.590 56.516
272.050 4.860 23.483
272.060 4.550 32.210
272.070 4.280 65.000
272.080 4.610 55.986
272.090 5.640 86.491
272.100 4.240 74.591
272.120 5.500 26.622
272.130 4.540 33.367
272.140 4.670 78.992
272.150 4.480 73.291
272.160 5.050 60.505
272.180 4.290 47.367
272.190 4.980 67.136
272.200 5.100 62.334
272.210 4.940 79.987
272.220 5.330 51.263
272.240 4.770 66.635
272.250 5.950 84.646
272.280 5.630 85.618
272.290 5.350 75.377
272.320 4.430 71.395
272.330 4.380 75.736
272.340 5.680 87.985
272.370 5.620 87.081
272.400 4.650 66.539
272.410 5.320 83.616
272.830 4.770 76.683
272.840 4.940 67.905
272.850 5.230 24.590
272.860 4.230 58.746
272.870 5.120 81.296
272.880 4.110 58.408
272.910 5.540 89.460
272.920 5.870 86.659
273.070 5.360 80.766
273.100 4.090 63.733
273.110 4.890 73.630
273.120 4.030 60.656
273.130 4.690 80.056
273.140 4.840 75.025
273.190 5.440 88.726
273.230 5.940 89.945
273.240 5.040 87.271
273.250 4.410 32.948
273.260 5.210 51.325
273.270 4.500 78.704
273.320 3.900 68.117
273.330 3.960 74.538
273.340 3.950 83.106
273.350 3.970 86.462
273.380 4.490 60.408
273.390 3.850 86.585
273.400 3.820 78.142
273.430 4.300 63.081
273.450 5.240 78.543
273.570 5.770 84.928
273.580 5.330 85.314
273.590 4.900 88.485
273.610 5.080 52.725
273.620 5.070 34.832
273.630 4.600 33.146
273.640 5.400 19.492
273.650 4.790 45.812
273.660 4.830 52.557
273.670 5.060 67.658
273.680 4.780 35.916
273.690 4.800 55.950
273.700 4.880 75.194
273.710 5.040 56.105
273.720 5.550 74.596
273.730 5.030 67.960
273.740 4.250 64.015
273.760 4.330 86.266
273.890 4.270 57.908
273.900 5.260 64.775
273.930 4.850 77.469
273.940 5.330 87.912
273.960 4.560 63.919
273.990 4.720 66.475
274.080 4.600 62.393
274.090 4.410 68.994
274.100 3.990 60.705
274.110 3.940 67.486
274.120 4.310 44.596
274.130 4.600 72.257
274.140 5.530 88.845
274.150 5.910 81.977
274.160 5.840 78.646
274.310 5.570 82.507
274.350 5.770 80.907
274.400 5.090 76.492
274.450 5.960 85.998
274.460 5.350 79.521
274.470 4.310 54.544
274.480 3.820 73.351
274.500 3.940 87.097
274.510 4.450 62.469
274.520 4.270 84.923
274.530 4.220 71.377
274.540 4.010 87.752
274.550 4.150 64.915
274.560 4.170 87.330
274.570 4.320 74.336
274.620 5.260 88.997
274.640 4.930 68.250
274.650 5.230 44.000
274.710 5.150 66.272
274.740 4.990 77.643
274.800 5.940 87.244
274.810 5.730 74.644
274.880 5.980 86.275
274.890 5.870 71.648
274.930 5.200 56.771
274.940 4.760 82.289
274.960 5.180 59.976
274.970 4.470 65.666
274.980 5.380 60.441
274.990 4.190 73.845
275.000 4.210 65.543
275.010 4.340 80.452
275.020 4.520 43.729
275.030 4.570 41.531
275.040 5.210 79.198
275.060 4.270 56.562
275.080 4.640 81.317
275.090 4.620 66.734
275.100 4.510 64.473
275.110 5.320 87.362
275.120 4.800 81.554
275.170 5.430 85.971
275.220 4.560 86.718
275.230 4.090 70.140
275.260 4.140 51.198
275.270 4.000 73.352
275.280 3.950 70.857
275.290 4.330 48.237
275.300 4.530 55.168
275.310 4.840 71.576
275.320 4.430 61.115
275.330 4.250 78.526
275.340 4.180 73.422
275.360 5.200 84.043
275.370 4.510 67.504
275.380 4.770 72.529
275.390 4.320 72.904
275.400 4.400 34.789
275.410 5.690 84.476
275.430 4.820 74.922
275.440 4.440 52.970
275.450 4.500 55.514
275.460 5.320 68.682
275.660 4.680 62.564
275.750 4.710 72.197
275.760 5.400 67.689
275.770 3.700 75.045
275.780 3.840 65.275
275.810 4.040 81.636
275.830 4.060 56.489
275.840 3.880 63.877
275.860 4.220 63.582
275.870 4.240 74.258
275.880 3.710 73.145
275.890 3.680 70.906
275.900 3.930 82.383
275.910 4.160 70.426
275.920 4.730 40.112
275.930 5.180 56.909
275.950 5.940 74.369
275.960 5.140 83.785
275.970 4.850 67.016
275.990 4.900 79.990
276.000 4.400 79.267
276.010 4.570 59.832
276.020 4.470 37.901
276.030 4.830 78.731
276.040 5.270 83.566
276.050 4.840 80.576
276.110 5.130 84.573
276.120 4.390 73.662
276.130 5.170 62.785
276.140 4.330 85.702
276.150 3.880 55.641
276.160 4.390 82.801
276.170 3.980 86.687
276.180 4.480 77.091
276.190 4.300 77.058
276.200 5.350 46.411
276.210 4.980 23.900
276.220 5.320 55.037
276.230 5.500 85.437
276.240 4.730 68.285
276.250 4.530 36.377
276.260 4.280 50.107
276.270 4.130 83.832
276.280 4.060 58.728
276.320 5.420 70.468
276.330 5.550 51.823
276.350 5.170 82.127
276.360 4.740 59.576
276.370 5.020 66.750
276.380 5.070 76.799
276.410 5.760 80.877
276.450 5.970 85.776
276.620 4.470 49.832
276.630 5.520 82.922
276.640 5.780 81.594
276.670 4.820 85.675
276.680 5.200 84.531
276.690 4.370 77.598
276.700 4.820 83.253
276.710 4.120 83.634
276.740 4.910 73.424
276.750 4.700 75.237
276.770 4.060 43.287
276.780 4.670 68.223
276.790 4.420 85.079
276.800 3.900 52.567
276.810 4.550 70.864
276.820 4.060 40.357
276.830 4.610 46.574
276.840 4.800 45.072
276.850 5.000 63.222
276.860 4.770 49.114
276.870 4.860 41.071
276.880 4.540 65.305
276.890 4.760 65.104
276.900 4.960 82.000
276.910 4.680 68.474
276.920 5.010 78.890
276.940 4.550 70.828
276.970 5.240 88.263
281.430 5.720 44.041
281.460 4.480 55.411
281.470 5.560 89.798
281.480 4.320 47.121
281.490 4.910 77.188
281.510 4.480 68.700
281.520 4.600 48.436
281.530 5.400 56.823
281.540 4.950 46.699
281.550 5.320 89.732
281.560 4.160 60.576
281.570 4.200 76.728
281.580 4.420 71.509
281.590 3.970 58.359
281.610 3.880 64.173
281.630 3.900 79.948
281.670 5.630 85.067
281.680 5.650 81.634
281.820 4.370 51.642
281.830 4.510 67.141
281.840 5.100 81.893
281.890 4.650 72.993
281.900 4.460 73.445
281.910 4.900 80.517
281.920 4.570 69.921
281.930 4.180 61.891
281.940 4.210 55.242
281.950 4.690 39.463
281.960 4.300 64.520
281.970 4.490 55.348
281.980 4.280 78.358
281.990 4.450 68.900
282.000 4.790 84.528
282.010 3.810 85.684
282.030 5.650 77.692
282.040 5.510 77.731
282.050 4.080 54.640
282.060 4.270 76.020
282.080 4.080 75.417
282.090 4.360 78.642
282.100 4.260 67.568
282.240 4.710 78.982
283.530 4.090 36.253
283.550 4.610 16.994
283.560 4.120 67.365
283.570 3.680 83.820
283.580 4.240 60.008
283.590 4.210 89.634
283.600 4.290 78.459
283.620 4.220 70.966
283.630 3.970 78.849
283.640 4.480 72.692
283.650 4.050 64.465
283.690 4.160 78.866
283.700 4.090 64.862
283.710 4.150 66.376
283.720 4.480 75.483
283.730 4.140 48.547
283.740 3.950 66.030
283.750 4.330 70.001
283.760 4.170 87.877
283.770 3.650 58.946
283.780 3.950 83.740
283.790 4.590 69.636
283.800 4.250 61.265
283.810 4.130 81.093
283.840 4.950 78.614
283.850 5.030 67.744
283.860 4.820 48.269
283.870 4.390 73.047
283.880 4.880 53.061
283.890 5.340 42.123
283.900 4.480 49.289
283.910 5.160 30.794
283.920 4.660 24.488
283.930 4.050 61.563
284.060 4.940 64.277
284.090 3.990 75.500
284.390 5.850 67.610
284.400 5.270 78.548
284.410 5.570 53.225
284.460 5.420 25.645
284.470 5.780 74.005
284.490 5.140 72.348
284.710 4.380 88.514
284.720 4.770 85.507
284.880 4.460 69.121
284.970 4.330 86.017
285.000 4.020 75.292
285.020 4.160 89.644
285.080 4.980 74.924
285.100 4.080 79.644
285.140 4.900 55.070
285.150 5.110 69.275
285.160 5.730 78.034
285.170 5.060 63.150
285.180 5.030 50.077
285.190 5.030 71.199
285.200 4.430 59.163
285.220 4.930 29.718
285.230 4.520 67.291
285.260 5.090 62.462
285.270 5.820 62.907
285.300 5.940 56.506
285.500 6.000 88.404
285.660 5.300 83.790
285.680 4.870 65.597
285.820 5.650 49.658
285.830 5.420 65.954
285.840 4.600 81.592
285.900 5.560 89.563
285.950 6.000 89.884
286.050 5.390 74.824
286.100 5.970 79.727
286.180 5.470 83.200
286.250 5.920 85.626
286.270 5.800 86.222
286.340 5.220 71.298
286.350 4.820 43.769
286.360 5.640 36.867
286.760 5.430 72.894
287.010 5.330 87.644
287.020 5.990 84.488
287.040 5.790 84.348
287.090 5.000 68.554
287.100 5.850 68.007
287.120 4.750 78.744
287.130 5.230 86.477
287.140 4.970 78.789
287.320 5.390 69.637
287.330 4.850 82.866
287.380 5.950 83.590
287.680 5.360 60.580
287.690 5.040 87.044
287.710 5.810 50.027
287.920 5.690 73.328
288.180 5.580 88.728
288.200 5.700 88.942
288.210 5.810 59.265
288.220 4.980 58.305
288.230 5.280 64.765
288.240 4.760 51.324
288.250 5.060 54.759
288.260 3.930 65.430
288.270 5.130 60.802
288.280 4.750 59.094
288.290 4.240 61.306
288.300 5.130 39.620
288.310 5.290 48.038
288.320 4.660 39.626
288.330 5.770 35.518
288.340 4.420 47.001
288.350 4.340 41.383
288.360 4.970 66.244
288.370 5.380 75.109
288.380 5.060 62.435
288.390 5.500 79.110
288.400 4.810 49.221
288.410 4.900 48.022
288.420 4.730 44.054
288.430 5.290 73.348
288.440 5.430 45.810
288.450 5.330 58.907
288.460 5.180 49.917
288.470 4.760 44.266
288.490 5.290 45.809
288.520 5.520 83.544
288.530 5.490 81.792
288.630 5.480 14.227
288.640 5.920 39.220
288.890 5.220 83.884
288.900 6.000 68.615
288.910 5.460 79.772
288.920 5.390 47.080
288.940 5.850 67.245
288.970 5.630 71.057
288.990 5.760 80.774
289.000 5.430 88.934
289.020 4.890 74.730
289.040 5.780 51.577
289.060 5.900 85.909
289.070 5.380 63.031
289.090 5.030 64.026
289.100 5.850 60.206
289.110 4.760 48.207
289.120 5.540 64.247
289.160 5.330 76.187
289.170 5.080 66.508
289.180 5.390 72.275
289.190 4.980 78.640
289.200 5.640 88.433
289.210 5.410 63.685
289.220 5.150 47.301
289.230 5.640 66.988
289.240 5.380 65.661
289.260 5.230 69.646
289.270 5.390 64.742
289.280 5.060 67.423
289.290 5.970 85.230
289.300 5.410 69.643
289.310 5.110 79.216
289.380 5.770 81.883
289.390 4.730 32.686
289.910 5.340 70.476
289.930 5.430 81.129
289.950 5.050 82.322
289.960 5.740 89.954
290.040 4.230 84.837
290.060 4.570 72.403
290.070 3.660 64.684
290.080 3.930 73.034
290.090 4.060 78.125
290.100 4.720 60.017
290.110 5.500 63.078
290.120 5.140 76.411
290.130 5.100 72.285
290.140 5.930 52.928
290.150 5.410 42.413
290.170 4.320 57.955
290.180 4.740 51.498
290.190 4.920 58.719
290.200 5.660 57.245
290.210 4.950 81.516
290.220 5.150 60.727
290.230 4.710 54.127
290.240 5.070 47.900
290.250 5.550 63.724
290.260 4.770 31.939
290.280 4.330 29.967
290.290 5.480 66.785
290.300 4.100 38.328
290.330 5.810 88.659
290.360 5.460 81.097
290.420 4.210 81.714
290.470 4.800 69.642
290.480 4.460 72.530
290.500 3.780 74.517
290.510 4.010 78.842
290.520 4.330 74.889
290.530 4.470 72.533
290.540 4.860 74.286
290.550 5.020 68.411
290.560 4.340 69.315
290.570 4.620 68.274
290.580 5.400 87.768
290.590 4.750 69.180
290.600 4.530 85.593
290.610 5.310 70.805
290.620 4.920 88.745
290.630 5.160 73.576
290.640 5.900 68.078
290.660 5.200 73.061
290.670 4.730 51.142
290.680 4.290 64.873
290.690 4.460 81.324
290.700 4.580 87.032
290.810 5.610 87.781
290.850 5.750 84.019
290.870 4.740 62.157
290.900 5.670 87.640
290.940 5.010 63.149
290.950 4.630 81.577
290.960 4.050 86.640
290.990 4.520 84.279
291.000 4.220 66.856
291.010 4.260 75.621
291.020 5.780 63.069
291.030 4.780 50.666
291.050 4.580 64.769
291.060 4.600 28.405
291.070 4.450 52.181
291.080 3.730 53.440
291.090 4.530 52.706
291.100 4.550 40.440
291.110 4.580 48.026
291.120 4.260 46.702
291.130 5.000 38.286
291.140 4.950 55.370
291.150 4.480 40.763
291.160 4.940 41.780
291.170 4.900 46.363
291.180 5.140 41.987
291.200 4.990 41.075
291.210 4.900 46.693
291.220 4.380 24.076
291.240 4.000 69.798
291.250 4.180 56.765
291.260 4.200 62.133
291.270 3.930 71.551
291.280 5.090 61.776
291.290 4.280 88.312
291.300 4.320 45.541
291.310 4.310 59.405
291.320 4.260 63.678
291.340 5.000 74.688
291.350 4.430 71.818
291.360 4.240 57.627
291.370 4.760 56.772
291.380 4.610 75.378
291.390 4.960 63.598
291.400 5.010 87.534
291.410 4.740 59.655
291.430 4.680 80.822
291.440 5.460 88.752
291.450 4.730 68.661
291.460 4.190 50.268
291.470 4.000 64.492
291.480 4.510 54.990
291.490 5.130 61.648
291.500 4.790 64.108
291.510 4.210 70.151
291.520 4.050 53.063
291.530 4.900 53.423
291.540 4.660 36.456
291.550 4.600 60.883
291.560 4.070 58.263
291.570 4.440 73.355
291.600 4.520 70.246
291.620 4.290 88.455
291.630 4.730 53.971
291.640 4.280 62.408
291.650 4.670 68.288
291.680 4.450 45.043
291.690 4.420 77.927
291.700 3.990 66.777
291.710 4.220 34.770
291.720 4.550 70.472
291.730 4.280 83.124
291.740 4.250 63.689
291.750 4.130 69.253
291.760 4.070 63.865
291.770 4.070 88.505
291.790 5.300 35.183
291.800 4.220 83.824
291.820 3.930 86.689
291.830 5.070 66.273
291.840 4.740 80.609
291.850 4.360 67.684
291.860 4.200 64.818
291.870 4.210 54.056
291.890 4.280 80.157
291.900 4.610 47.367
291.910 4.480 53.264
291.920 4.340 50.044
291.940 4.990 53.348
291.950 4.440 45.879
291.960 4.540 79.151
291.970 4.540 49.903
291.980 5.160 43.602
291.990 4.320 25.624
292.000 4.140 67.267
292.010 4.240 77.078
292.020 4.490 80.541
292.030 4.020 58.873
292.060 4.360 71.831
292.070 4.780 72.432
292.090 4.160 54.574
292.100 4.450 74.818
292.110 4.520 25.328
292.120 4.410 56.295
292.130 4.950 27.122
292.140 4.670 60.382
292.150 4.700 56.118
292.160 4.520 57.772
292.170 4.660 68.057
292.180 4.270 65.031
292.190 4.540 45.718
292.200 4.400 44.537
292.210 4.090 60.210
292.220 4.550 59.261
292.230 4.350 48.116
292.240 4.180 60.464
292.250 4.500 71.159
292.260 4.550 60.901
292.270 4.670 60.708
292.280 4.630 59.345
292.290 4.930 57.130
292.300 4.030 43.234
292.310 4.410 85.988
292.320 4.300 52.120
292.330 4.460 77.809
292.340 5.220 71.823
292.350 4.640 58.556
292.360 4.330 85.994
292.370 4.230 52.244
292.380 4.230 31.933
292.390 4.240 52.172
292.420 4.700 84.582
292.430 4.350 56.689
292.440 4.490 60.009
292.450 4.040 67.790
292.460 4.830 45.683
292.470 4.630 81.387
292.480 4.180 52.125
292.490 5.350 64.681
292.500 4.120 74.909
292.510 4.250 56.120
292.520 4.670 60.131
292.530 4.630 77.653
292.540 4.440 64.156
292.670 4.910 85.885
292.760 5.950 86.090
292.780 4.690 67.316
292.850 5.180 74.168
292.860 5.290 89.784
292.880 5.310 70.129
292.890 4.810 70.233
292.900 4.320 83.830
292.910 3.970 82.795
292.930 5.060 86.056
292.940 5.190 84.149
292.960 4.760 78.083
292.970 4.440 69.064
292.980 3.940 70.141
292.990 4.360 80.561
293.000 5.050 84.710
293.010 4.470 71.934
293.030 4.920 88.473
293.040 4.570 77.351
293.060 4.590 89.131
293.070 4.640 76.124
293.090 4.450 82.494
293.110 4.540 89.377
293.130 4.670 68.002
293.140 4.330 61.428
293.180 4.310 85.185
293.200 4.620 74.864
293.270 4.950 80.049
293.300 5.550 74.386
293.330 4.690 87.900
293.340 4.160 71.813
293.350 4.290 82.075
293.360 4.710 82.170
293.370 4.080 83.439
293.380 3.810 89.424
293.390 4.810 84.460
293.410 4.440 50.034
293.420 4.830 19.299
293.440 3.980 74.454
293.450 4.570 48.642
293.460 4.070 89.308
293.470 4.830 89.231
293.480 4.840 54.444
293.490 4.630 57.528
293.500 5.970 34.940
293.510 4.860 60.597
293.520 5.590 70.163
293.530 5.180 39.213
293.540 4.840 55.268
293.550 4.840 55.892
294.770 5.680 85.813
294.790 5.990 85.311
294.900 5.810 88.117
295.110 6.000 71.783
295.140 5.050 84.945
295.160 4.500 76.435
295.170 4.570 64.382
295.200 4.910 82.006
295.210 4.430 59.358
295.220 4.900 82.240
295.230 4.540 56.265
295.240 4.710 76.733
295.250 5.130 58.544
295.260 4.590 74.595
295.290 5.910 86.174
295.320 4.740 64.633
295.330 4.670 56.126
295.340 4.530 72.322
295.350 4.550 60.755
295.650 4.450 67.165
295.660 4.890 68.971
295.670 4.530 59.586
295.680 5.980 70.329
295.710 5.940 86.192
295.890 5.920 4.646
295.910 5.610 23.493
295.920 5.450 27.468
295.940 5.510 30.803
295.960 5.850 22.398
295.970 5.180 25.977
295.980 5.020 34.645
295.990 5.140 87.198
296.250 5.570 75.475
296.320 3.940 85.524
296.340 4.540 80.311
296.350 5.930 82.005
296.360 5.430 71.939
296.370 5.730 79.326
296.420 5.110 84.859
296.580 4.750 75.009
296.660 5.770 74.355
296.670 5.380 87.375
296.740 4.350 87.854
296.830 4.600 87.474
296.880 5.660 80.605
296.890 5.120 86.667
296.900 5.570 77.089
297.000 5.740 88.155
297.030 5.900 78.239
297.040 4.490 61.285
297.050 4.570 26.378
297.060 5.770 82.743
297.070 5.450 66.523
297.090 5.640 37.042
297.100 4.540 35.041
297.110 4.050 68.053
297.120 4.670 31.100
297.130 4.580 43.805
297.140 4.640 70.914
297.150 4.080 84.173
297.160 4.380 63.372
297.170 3.710 75.511
297.240 4.660 64.940
297.270 4.600 71.365
297.280 4.480 67.729
297.300 4.150 85.226
297.310 3.850 65.308
297.320 3.760 81.178
297.330 4.040 57.695
297.340 4.230 72.411
297.350 3.910 77.081
297.360 4.730 79.550
297.380 3.740 67.233
297.390 4.220 60.406
297.400 4.080 55.638
297.420 4.320 57.665
297.440 5.210 72.338
297.450 4.270 56.936
297.460 4.330 67.161
297.470 4.380 79.952
297.480 4.430 68.292
297.490 5.000 63.803
297.500 5.140 65.555
297.510 4.740 37.824
297.520 4.220 22.013
297.530 4.830 64.132
297.540 5.110 45.076
297.550 4.520 48.655
297.560 4.290 74.872
297.570 4.260 54.101
297.580 4.040 78.049
297.590 4.420 64.522
297.600 4.320 67.397
297.610 4.170 57.675
297.620 4.060 52.018
297.630 4.440 62.143
297.640 4.160 78.759
297.650 4.130 53.131
297.660 4.300 76.341
297.680 4.810 53.484
297.690 4.790 34.816
297.700 4.630 49.186
297.710 4.350 46.277
297.720 4.290 45.259
297.730 4.380 80.465
297.740 4.170 68.881
297.750 4.340 39.639
297.770 4.340 76.368
297.780 4.630 50.484
297.790 4.140 51.979
297.800 4.680 77.508
297.810 4.400 50.655
297.820 4.920 19.234
297.830 5.090 60.151
297.840 4.570 47.538
297.850 4.620 75.718
297.860 5.030 43.432
297.870 4.400 51.932
297.880 4.220 61.629
297.890 4.340 66.973
297.900 4.470 72.085
297.910 4.620 47.222
297.920 4.440 35.012
297.930 4.490 38.164
297.940 4.670 42.572
297.950 4.700 46.955
297.960 4.320 65.038
297.970 4.280 59.189
297.980 4.600 51.364
297.990 4.360 51.958
298.000 4.440 45.119
298.010 4.670 51.169
298.020 5.130 45.150
298.030 4.340 44.638
298.040 4.800 66.123
298.050 4.500 44.300
298.060 4.340 38.140
298.070 4.540 36.220
298.080 4.730 50.233
298.090 4.380 78.890
298.100 4.120 76.246
298.120 4.290 79.315
298.130 4.600 34.744
298.140 3.950 75.600
298.150 4.810 45.853
298.160 4.300 65.643
298.170 4.110 78.220
298.180 4.700 76.877
298.190 4.140 64.016
298.200 4.360 45.933
298.210 4.130 59.507
298.230 4.360 41.707
298.240 4.700 34.739
298.250 4.930 48.679
298.260 5.290 49.136
298.270 4.360 35.928
298.280 4.820 47.181
298.290 4.040 89.751
298.300 4.820 41.883
298.310 4.310 72.538
298.320 4.460 50.851
298.330 4.380 59.471
298.340 4.610 55.252
298.350 4.940 57.297
298.360 4.500 40.996
298.370 4.340 38.807
298.380 4.470 56.527
298.390 4.180 64.502
298.400 4.290 66.008
298.410 4.450 53.065
298.420 4.520 67.887
298.430 4.690 64.530
298.440 4.520 27.797
298.460 4.280 27.737
298.470 5.090 17.679
298.480 5.080 79.899
298.490 4.970 33.384
298.500 4.580 85.954
298.510 4.270 55.426
298.520 4.520 20.376
298.540 4.360 38.549
298.550 4.340 40.980
298.560 4.260 65.096
298.570 4.450 48.868
298.580 4.250 47.769
298.590 4.200 50.418
298.600 4.400 60.509
298.610 4.940 46.711
298.620 4.770 13.114
298.630 5.070 39.598
298.640 5.110 24.814
298.650 4.710 36.014
298.660 4.100 68.116
298.670 4.640 60.157
298.680 5.120 19.867
298.690 4.800 13.395
298.700 4.480 11.292
298.710 5.100 50.382
298.720 4.820 53.016
298.730 5.240 41.162
298.740 4.710 31.749
298.750 4.510 55.561
298.760 4.370 38.647
298.770 4.580 30.422
298.780 4.220 39.869
298.790 4.800 54.838
298.800 4.520 50.599
298.810 4.010 51.798
298.820 4.360 60.794
298.830 4.280 44.588
298.840 4.990 54.563
298.850 4.250 66.532
298.860 4.390 56.443
298.870 4.640 38.649
298.880 4.650 49.702
298.890 4.470 39.342
298.900 4.480 50.537
298.910 4.630 58.484
298.920 4.720 42.921
298.930 4.540 32.259
298.940 4.600 23.929
298.950 4.300 50.695
298.960 4.420 9.820
298.970 4.410 18.719
298.980 4.630 33.020
298.990 4.650 44.854
299.000 4.610 50.587
299.010 4.530 40.723
299.020 4.660 34.623
299.030 4.260 53.571
299.040 4.140 59.103
299.050 4.360 31.279
299.060 4.150 42.981
299.070 4.650 49.872
299.080 4.790 42.011
299.090 4.890 42.635
299.100 4.530 42.991
299.110 4.320 53.087
299.120 4.420 32.978
299.130 4.720 34.055
299.140 4.430 16.557
299.150 4.670 42.865
299.160 4.410 42.712
299.170 4.770 34.271
299.180 4.600 57.130
299.190 4.430 44.824
299.200 4.590 44.621
299.210 4.390 42.178
299.220 4.980 53.961
299.230 4.620 43.035
299.240 4.960 34.287
299.250 4.920 32.777
299.270 4.570 51.845
299.280 4.360 39.191
299.290 4.320 50.064
299.300 4.690 23.347
299.310 4.430 32.239
299.330 4.720 32.097
299.340 4.270 45.147
299.350 4.300 41.238
299.360 4.230 39.390
299.370 4.420 42.098
299.380 4.370 56.966
299.390 4.680 25.769
299.400 4.120 51.621
299.410 4.350 41.428
299.420 4.090 52.607
299.430 4.480 51.788
299.440 4.830 38.947
299.450 4.470 30.943
299.460 4.490 40.284
299.470 4.820 56.780
299.480 4.310 65.887
299.490 5.520 51.793
299.510 4.960 53.073
299.520 4.400 27.291
299.530 5.280 37.075
299.550 4.720 34.339
299.560 4.510 67.224
299.570 4.540 44.309
299.580 4.560 45.600
299.590 4.440 45.898
299.600 4.500 44.470
299.610 4.600 68.261
299.620 4.130 52.907
299.630 4.520 40.203
299.640 4.880 17.279
299.650 4.400 31.713
299.660 4.490 40.836
299.670 4.480 29.645
299.680 4.430 41.653
299.690 4.620 48.645
299.700 4.790 71.950
299.710 4.840 30.283
299.720 4.760 29.798
299.730 4.940 24.918
299.740 4.970 32.969
299.750 4.270 51.554
299.760 4.590 41.399
299.770 4.430 52.965
299.780 4.540 57.015
299.790 4.690 66.207
299.800 4.310 54.166
299.810 4.620 33.179
299.820 4.510 51.225
299.830 4.230 52.678
299.840 4.310 44.809
299.850 4.400 56.603
299.860 3.960 53.408
299.870 5.090 60.447
299.880 4.640 43.748
299.890 4.430 59.705
299.900 4.370 58.772
299.910 4.190 70.455
299.920 4.570 29.909
299.930 4.100 69.251
299.940 4.020 54.520
299.950 4.430 52.695
299.960 4.350 51.944
