# time(ns) distance (A) angle (deg)
2.290 4.860 15.181
2.310 4.450 16.972
2.320 4.200 26.016
2.330 4.200 15.206
2.340 3.820 23.655
2.350 3.600 16.737
2.360 4.610 31.065
2.370 4.070 33.874
2.470 4.540 40.933
2.490 3.810 12.991
2.500 4.260 35.933
2.510 4.130 10.303
2.520 4.190 25.788
2.530 4.180 7.069
2.550 3.710 16.143
2.560 4.110 28.146
2.570 4.780 31.810
2.600 4.330 44.348
2.610 4.970 29.962
2.770 4.010 25.319
2.780 4.690 13.743
2.790 4.360 41.096
2.830 4.770 23.700
2.860 4.330 25.781
2.870 4.570 21.015
2.880 4.260 14.162
2.900 3.980 38.830
2.910 4.240 29.307
2.920 4.050 31.046
2.930 4.030 27.092
2.940 4.790 28.165
2.950 4.850 23.421
2.960 4.530 0.529
2.970 4.620 12.966
2.980 4.980 41.872
2.990 4.440 10.298
3.000 4.610 22.607
3.010 4.200 12.752
3.020 4.450 17.743
3.040 4.230 3.852
3.060 4.900 20.091
3.070 4.880 26.023
3.080 4.590 18.074
3.090 4.870 27.426
3.100 4.170 28.344
3.180 4.410 43.887
3.190 4.320 32.766
3.200 4.320 36.673
3.210 4.660 37.241
3.240 4.330 3.964
3.250 4.060 11.479
3.260 4.330 27.047
3.320 4.880 36.744
3.480 4.960 35.922
3.880 4.490 26.791
24.170 4.700 32.398
24.240 4.010 43.080
24.250 4.970 19.437
24.260 4.270 35.922
24.270 4.520 13.828
24.280 4.380 34.857
24.290 4.670 35.354
24.300 4.570 25.815
24.320 4.250 35.029
24.330 4.940 15.236
24.340 4.360 25.793
24.360 4.790 29.491
24.370 4.490 25.042
24.380 4.220 24.785
24.390 4.340 35.925
24.400 4.410 28.869
24.410 4.250 21.779
24.420 4.550 10.147
24.440 4.720 11.839
24.500 4.670 37.256
24.530 4.510 29.442
24.540 4.780 36.157
24.550 4.560 43.541
24.570 4.780 26.058
24.580 4.470 38.266
24.590 4.510 41.929
24.620 4.150 28.054
24.630 4.200 29.336
24.640 4.070 15.835
24.650 4.040 34.566
24.710 4.360 29.951
24.730 4.640 31.006
24.740 4.770 41.269
24.800 4.940 35.270
24.820 4.280 41.772
24.840 4.690 11.615
24.870 4.760 44.043
24.880 4.670 25.553
26.480 3.690 15.205
26.490 4.320 21.003
26.500 4.430 39.467
26.510 4.440 18.313
26.530 4.570 30.531
26.550 3.980 15.866
26.560 4.890 40.902
26.570 4.830 4.222
26.580 4.690 29.382
26.590 4.620 15.796
26.600 4.280 25.873
26.630 4.460 24.189
26.640 4.170 24.450
26.650 3.910 9.301
26.660 4.020 28.594
26.680 4.510 20.660
26.690 3.730 8.059
26.710 4.160 35.238
26.720 3.960 28.164
26.730 4.350 38.932
26.740 4.320 34.168
26.750 4.620 34.555
26.760 4.530 25.284
26.770 4.460 26.982
26.780 4.270 39.060
26.790 4.520 13.016
26.800 4.260 41.516
26.810 4.560 29.887
26.820 4.410 19.072
26.830 4.580 34.182
27.590 4.490 35.652
27.690 4.400 25.042
27.730 4.560 40.041
27.750 4.560 19.791
27.760 4.220 33.988
27.770 4.250 33.696
27.780 4.780 29.696
27.790 4.650 33.801
27.800 4.330 32.789
27.930 4.410 23.416
27.940 4.030 44.453
27.970 4.530 26.100
28.090 4.340 27.294
28.100 4.310 35.513
28.110 4.450 27.158
28.120 4.280 27.247
28.130 3.860 8.840
28.140 4.540 30.546
28.150 4.010 25.759
28.160 3.810 20.142
28.170 4.150 29.999
28.180 4.170 22.197
28.190 4.060 32.455
28.220 3.870 28.639
28.230 4.710 38.477
28.240 4.520 10.164
28.270 4.660 36.090
28.300 4.850 19.286
28.320 4.420 37.410
28.330 4.710 16.772
28.360 4.970 24.325
28.370 4.950 31.361
28.380 4.140 20.863
28.390 4.370 34.087
28.420 4.610 16.103
28.430 4.390 18.809
28.450 4.140 25.893
28.460 3.750 3.209
28.470 4.350 22.710
28.480 4.580 5.905
28.520 4.910 33.886
28.530 4.840 15.525
28.540 4.850 18.906
28.570 4.700 39.574
28.590 4.530 36.013
28.600 4.830 23.880
28.640 4.540 11.708
28.700 4.690 20.727
28.710 4.360 0.801
28.790 4.690 32.529
28.800 4.920 9.181
28.810 4.480 22.036
28.830 4.640 32.533
28.840 4.870 16.961
28.910 4.470 23.265
28.920 4.490 25.619
28.940 4.770 16.341
28.950 4.700 38.864
28.980 4.810 5.098
28.990 4.170 23.159
29.030 4.600 19.170
29.060 4.900 9.615
29.070 4.640 26.390
29.090 4.810 32.799
29.140 4.470 38.853
29.200 4.840 8.499
29.210 4.710 9.508
29.220 4.840 16.912
29.240 4.960 17.544
29.250 4.820 11.915
29.260 4.910 35.156
29.280 4.910 25.601
29.290 4.680 22.841
29.320 4.920 9.353
29.330 4.530 16.953
29.340 4.080 40.744
29.350 4.040 41.986
29.370 4.650 25.710
29.380 4.170 30.586
29.390 4.000 23.034
29.400 4.520 36.983
29.410 4.450 25.487
29.430 4.260 31.851
29.440 4.470 18.933
29.450 4.410 29.007
29.460 4.370 34.696
29.470 4.410 34.149
29.490 4.310 44.251
29.500 4.610 32.874
29.510 4.620 44.745
29.530 4.730 41.050
29.560 4.180 35.578
29.570 4.780 8.698
29.580 4.260 18.970
29.590 4.640 31.918
29.600 4.720 20.229
29.620 4.320 18.336
29.630 4.710 22.480
29.640 4.510 34.577
29.660 4.460 19.166
29.680 4.390 13.298
29.700 4.800 2.197
29.720 4.950 7.867
29.730 4.630 26.914
29.740 4.550 14.365
29.760 4.290 37.460
29.770 4.530 43.048
29.790 4.530 30.979
29.800 4.490 25.201
33.580 4.520 41.020
33.620 4.470 40.790
33.660 4.040 36.247
34.040 4.570 43.470
34.050 4.310 36.219
34.060 4.770 17.417
34.070 4.240 34.224
34.080 4.890 15.614
34.090 4.220 40.157
37.100 4.580 37.678
37.560 4.030 34.589
37.580 4.000 36.895
37.650 4.350 10.675
37.720 4.640 38.764
37.740 4.600 36.993
37.870 4.380 29.759
37.880 4.160 38.294
37.900 4.700 37.794
37.970 4.530 42.267
38.010 4.670 39.398
38.020 4.850 39.931
38.030 4.670 30.198
38.080 4.380 39.586
38.110 4.490 31.980
38.120 4.320 40.577
38.240 4.100 38.379
38.260 4.540 43.649
38.270 4.590 40.238
38.360 4.700 42.599
38.380 4.190 38.493
38.390 4.610 34.021
38.400 4.250 32.057
38.410 4.710 41.658
38.820 4.330 37.527
39.180 4.130 40.103
39.200 4.310 44.704
39.260 4.680 42.493
39.270 4.390 24.886
39.280 3.910 7.925
39.290 4.490 25.170
39.300 4.540 37.172
39.310 4.240 21.688
39.320 4.150 20.681
39.330 4.460 18.477
39.340 4.910 43.789
39.350 4.220 24.472
39.360 4.310 16.138
39.370 4.110 20.116
39.380 4.820 16.615
39.390 4.660 12.516
39.400 3.860 12.204
39.410 4.190 16.608
39.420 4.960 11.920
39.430 4.010 20.229
39.440 4.210 23.646
39.450 3.750 13.432
39.460 3.950 25.248
39.470 4.120 27.636
39.480 4.040 15.744
39.490 3.820 7.326
39.500 3.740 9.896
39.510 3.910 25.151
39.520 3.770 4.447
39.530 4.540 16.473
39.540 3.730 6.205
39.550 3.840 13.829
39.560 3.930 12.142
39.570 4.060 27.624
39.580 4.360 25.192
39.590 4.530 16.062
39.600 4.460 12.874
39.610 4.830 32.833
39.620 4.440 20.608
39.630 4.630 9.205
39.640 4.330 21.190
39.660 4.690 34.808
39.670 4.910 14.456
39.730 4.630 19.488
39.740 4.830 15.947
39.750 4.450 38.181
39.760 4.230 41.480
39.800 4.970 18.530
39.810 4.470 18.440
39.820 4.060 24.462
39.830 3.930 7.961
39.840 4.200 22.172
39.850 3.930 14.526
39.860 4.120 13.317
39.870 4.170 26.184
39.880 4.110 14.532
39.890 4.210 17.320
39.900 3.850 10.228
39.910 4.450 27.633
39.920 4.890 41.035
39.950 4.450 12.809
39.960 4.130 25.809
39.970 4.340 32.818
39.990 4.180 18.896
40.050 4.300 26.165
40.070 4.690 16.358
40.080 4.440 17.565
40.090 4.390 31.488
40.100 4.560 24.718
40.110 4.370 26.678
40.120 4.700 15.392
40.130 4.860 13.037
40.140 4.790 13.875
40.160 4.720 15.992
40.170 4.550 25.073
40.180 4.780 41.234
40.190 4.410 22.234
40.200 4.450 13.394
40.210 4.560 15.375
40.220 4.420 28.707
40.230 4.090 26.265
40.250 4.540 28.708
40.260 4.570 32.783
40.280 4.260 12.775
40.290 3.960 32.940
40.300 4.170 21.543
40.310 4.210 11.104
40.320 4.070 11.236
40.330 4.010 18.562
40.340 3.630 29.129
40.350 3.930 11.793
40.360 3.820 17.549
40.370 3.900 16.583
40.380 4.140 29.639
40.390 4.210 28.926
40.400 3.990 32.745
40.410 4.670 40.718
40.480 4.600 41.391
40.500 4.880 35.608
40.510 4.580 20.425
40.520 4.120 33.670
40.530 4.130 32.340
40.540 4.510 11.093
40.550 4.330 13.408
40.560 4.570 38.096
40.590 4.890 27.287
40.610 4.530 40.473
43.810 4.550 14.519
43.830 4.860 29.790
43.840 4.740 19.122
43.870 4.820 14.531
45.110 3.980 44.767
45.160 3.920 38.768
45.210 4.320 40.890
45.230 4.590 34.602
45.310 4.570 42.281
45.320 4.410 44.489
45.360 4.460 38.012
45.550 4.690 43.411
45.570 4.230 29.928
45.580 4.520 38.568
45.610 4.760 41.237
45.630 4.370 44.649
45.640 4.260 40.049
45.670 4.110 40.899
45.760 4.100 39.949
45.780 3.870 41.014
45.790 4.550 38.330
45.800 4.230 42.196
45.850 4.980 42.120
45.870 4.720 36.956
45.880 4.490 32.729
45.910 4.770 34.400
45.920 4.970 19.690
46.010 4.460 44.278
46.120 4.290 37.332
46.160 4.170 36.242
46.260 4.810 38.109
46.350 3.970 34.261
46.460 4.320 36.711
46.520 4.410 43.410
46.570 4.200 39.253
46.750 4.600 40.234
46.800 4.100 25.345
46.850 3.910 43.936
46.860 4.550 42.878
46.900 4.300 36.258
46.930 3.940 34.557
46.950 4.460 31.381
46.960 4.210 38.488
46.970 4.910 43.349
46.980 4.500 41.713
47.100 4.000 43.071
47.110 4.200 33.788
47.130 3.890 43.581
47.150 4.400 44.405
47.170 4.250 42.607
47.210 3.920 39.277
50.530 4.240 38.270
50.540 4.750 41.146
50.550 4.830 36.577
50.590 4.890 23.734
50.620 4.960 18.046
50.700 4.930 8.395
50.710 4.470 23.568
50.720 4.360 13.215
50.730 4.460 24.369
50.760 4.930 2.861
50.780 4.560 2.645
50.800 4.770 14.728
50.820 4.390 31.294
50.840 4.010 14.824
50.850 4.610 33.353
50.860 4.470 36.339
53.570 4.450 31.421
53.590 4.980 23.692
53.620 4.340 11.048
53.630 4.490 11.896
53.640 4.770 27.359
53.650 4.390 34.236
53.670 4.960 32.736
53.700 4.690 9.161
53.720 4.520 13.103
53.730 4.640 38.531
53.770 4.470 27.352
53.800 4.740 31.691
53.810 4.120 38.934
53.820 4.610 19.130
53.840 4.090 28.308
53.860 4.460 32.539
53.870 4.110 21.040
53.900 4.820 9.564
53.930 4.790 21.276
53.940 4.490 30.374
53.950 4.010 38.492
54.000 4.410 12.024
54.020 4.610 16.220
54.030 4.340 35.977
54.040 3.980 41.999
54.050 4.410 27.758
54.060 4.440 33.715
54.070 4.170 23.675
54.090 4.740 26.948
54.100 4.690 16.901
54.110 4.740 11.749
54.200 4.450 42.567
54.260 4.610 43.436
54.420 4.900 25.135
54.440 4.370 42.762
54.450 4.730 41.310
54.460 4.750 38.985
54.540 3.920 42.044
54.580 3.860 43.726
54.830 4.520 14.267
54.840 4.040 33.908
54.850 4.490 31.218
54.870 4.270 27.635
54.880 3.940 26.719
54.890 4.530 34.669
54.920 4.340 17.609
54.940 4.930 13.823
54.950 4.740 25.450
55.000 4.080 34.181
55.010 4.550 27.491
55.020 4.910 20.670
55.040 4.500 30.238
55.060 4.810 17.192
55.070 4.830 38.771
55.080 3.910 43.376
55.090 4.410 19.822
55.100 4.870 22.322
55.130 4.830 42.199
55.140 4.880 5.222
55.150 4.810 32.338
55.160 4.780 26.040
55.200 4.140 35.326
55.280 4.960 13.105
55.290 4.550 41.790
55.300 4.950 32.131
55.350 4.620 31.542
55.390 4.290 29.882
55.620 4.590 36.405
55.630 4.420 28.139
55.650 3.990 26.691
56.260 4.140 13.458
56.270 4.440 41.880
56.290 4.400 29.521
56.300 3.790 23.638
56.320 4.110 15.097
56.330 4.070 15.108
56.340 4.150 14.564
56.360 4.220 22.203
56.370 4.560 23.204
56.380 4.420 19.573
56.410 3.880 30.186
56.420 3.940 6.361
56.430 4.140 18.635
56.450 4.410 33.080
56.460 3.780 20.181
56.470 3.910 29.444
56.480 4.210 33.257
56.490 4.570 40.779
56.640 4.490 8.716
59.910 4.410 35.271
59.920 4.790 35.131
59.970 4.570 41.283
59.990 4.800 21.485
60.000 4.440 31.845
60.060 4.560 16.742
60.070 4.300 33.397
60.080 4.440 8.629
60.090 4.270 35.687
60.160 4.920 17.063
60.180 4.910 22.832
60.190 4.960 44.219
60.200 4.110 40.077
60.220 4.160 35.427
60.270 4.150 38.334
60.280 4.550 36.521
60.300 4.640 9.326
67.360 4.800 2.797
67.370 4.360 20.306
67.380 4.480 9.957
67.390 4.880 23.710
67.400 4.450 22.592
67.410 4.080 34.769
67.430 4.140 43.526
67.450 4.850 10.180
67.470 4.290 18.717
67.480 4.290 21.907
67.510 4.820 32.975
67.520 4.490 35.878
67.530 4.220 36.546
67.550 4.250 40.875
67.570 4.080 20.743
67.590 4.090 36.719
67.620 4.050 38.936
67.630 4.410 42.855
67.640 4.710 42.758
67.660 4.330 34.796
67.700 4.040 12.506
67.710 3.980 18.235
67.750 4.050 26.823
67.760 3.840 6.384
67.770 4.200 32.794
67.780 4.050 41.309
67.790 4.020 40.893
67.800 4.030 40.673
67.840 4.140 42.357
67.880 4.110 42.409
67.900 4.210 35.066
67.910 4.010 15.533
67.920 4.370 30.441
67.930 4.810 22.220
67.940 4.330 8.868
67.950 4.980 42.369
68.000 4.800 22.854
68.010 4.490 36.202
68.020 4.650 19.540
68.070 4.710 25.148
68.080 4.950 33.805
68.090 4.580 25.302
68.100 4.570 16.493
68.110 4.600 12.417
68.220 4.600 38.236
68.230 4.460 27.958
68.240 4.340 21.923
68.250 4.730 26.329
68.260 4.550 20.008
68.270 4.470 16.099
68.280 4.670 32.643
68.290 4.300 30.593
68.370 4.840 31.557
68.390 4.440 31.273
68.400 4.850 44.586
68.420 4.640 14.429
68.440 4.850 37.417
68.490 4.890 31.345
68.500 4.450 39.352
68.510 4.850 27.388
68.750 4.770 33.513
68.760 4.850 20.969
68.770 4.590 15.323
68.780 4.680 30.048
68.810 4.270 36.984
68.830 4.570 16.077
68.840 4.310 23.385
68.850 4.590 12.764
68.860 4.780 22.220
68.880 4.780 26.367
68.900 4.360 41.322
68.910 4.290 36.323
68.920 4.510 27.617
68.940 4.680 40.543
68.950 4.430 27.651
68.960 3.920 16.690
68.970 4.330 4.857
69.000 4.750 30.425
69.010 4.280 31.638
69.020 4.730 42.118
69.090 4.880 24.181
69.100 4.350 27.764
69.120 4.130 17.854
69.130 4.540 39.968
69.140 4.240 27.306
69.150 4.350 37.208
69.160 4.920 4.368
69.170 4.700 31.924
69.180 4.310 17.894
69.190 4.760 35.607
69.200 4.350 26.865
69.290 4.300 35.014
69.300 4.770 21.102
69.310 4.790 34.775
69.380 4.560 32.699
69.390 4.930 32.009
69.400 4.280 14.783
69.490 4.710 4.776
69.500 4.820 36.086
69.690 4.700 25.864
69.700 4.950 14.011
72.130 4.310 37.182
72.140 4.420 35.437
72.150 4.380 25.594
72.160 4.960 35.592
72.170 4.280 37.983
72.180 4.460 41.653
72.190 4.340 25.738
72.200 4.420 8.015
72.210 4.060 34.215
72.220 4.100 40.547
72.240 4.560 33.796
72.260 4.290 41.060
72.270 4.680 38.528
72.280 4.880 24.398
72.290 4.420 9.892
72.300 4.490 21.352
72.310 4.810 15.051
72.320 4.340 24.958
72.330 4.790 31.911
72.340 4.520 24.239
72.380 4.860 34.684
72.390 4.700 10.879
72.400 4.880 20.047
72.410 4.150 20.189
72.430 4.810 17.117
72.440 4.610 23.968
72.460 4.710 37.681
72.470 4.250 10.370
72.480 4.420 16.740
72.490 4.580 18.481
72.500 4.510 32.403
72.510 4.210 43.135
72.520 4.470 16.036
72.530 4.210 12.011
72.540 4.440 10.512
72.550 4.460 32.690
72.560 4.260 30.432
72.580 4.320 23.258
72.590 4.290 3.643
72.600 4.200 15.974
72.620 4.310 37.478
72.640 4.020 42.011
72.650 4.180 26.606
72.660 4.130 30.875
72.690 4.330 44.181
72.710 4.310 9.047
72.720 4.160 25.297
72.730 4.160 11.959
72.750 4.030 22.890
72.760 4.810 44.436
72.770 4.450 21.064
72.780 4.450 42.675
103.270 4.760 43.791
103.420 4.260 43.162
103.430 4.350 14.903
103.440 4.650 34.105
103.540 4.340 43.055
103.580 4.120 35.619
103.590 4.150 31.531
103.600 3.990 32.123
103.610 4.480 27.977
103.620 3.990 37.022
103.630 3.920 29.607
103.640 4.420 32.216
103.650 3.920 40.669
103.660 4.130 32.665
103.670 3.590 20.322
103.680 4.130 37.825
103.710 4.050 37.992
103.720 4.200 35.769
103.730 4.880 19.943
103.740 4.560 44.737
103.780 4.680 41.592
103.800 4.980 21.889
103.840 4.310 24.112
103.860 4.050 32.909
103.880 4.630 40.436
103.950 4.240 27.039
103.970 4.400 41.321
103.990 4.480 30.196
104.400 4.570 33.272
104.410 3.890 17.601
104.420 3.880 35.357
104.430 4.880 37.886
104.450 4.240 44.636
104.510 4.600 19.534
104.520 4.100 41.013
104.530 4.240 34.484
104.560 4.560 24.795
104.580 4.030 30.577
104.600 4.380 39.411
104.650 4.600 31.736
104.680 4.720 44.888
104.690 4.990 26.817
104.750 4.480 43.183
104.770 4.440 40.043
104.780 4.640 33.344
104.800 4.450 34.008
104.820 4.930 44.127
104.850 4.200 39.996
104.870 3.750 24.297
104.880 4.100 23.482
104.920 4.360 41.590
104.930 4.090 23.455
104.950 4.390 42.428
105.050 4.580 41.989
105.090 4.080 40.920
105.110 4.210 40.498
105.130 4.380 36.439
105.150 4.510 31.684
105.160 4.440 16.662
105.170 4.120 38.694
105.240 4.160 39.451
105.270 3.810 29.884
105.290 4.250 24.512
105.310 4.540 29.289
105.320 4.300 24.863
105.330 4.480 35.455
105.370 4.080 43.906
105.400 4.380 34.785
105.410 4.570 39.013
105.830 4.110 15.794
105.840 4.290 43.921
105.850 4.540 34.102
105.860 4.800 11.802
105.870 4.590 25.215
105.880 4.230 22.977
105.890 4.130 34.006
105.920 4.810 38.289
105.970 4.680 16.795
105.980 4.620 29.412
106.010 4.070 36.887
106.020 4.530 27.801
106.050 4.880 27.948
106.060 4.330 36.331
106.080 4.280 28.238
106.160 4.550 28.762
106.170 4.130 35.736
106.200 4.040 17.151
106.210 4.560 42.268
106.230 4.800 36.612
106.250 4.190 37.588
106.260 4.210 25.537
106.270 4.580 36.392
106.280 4.010 33.999
106.300 4.790 40.113
106.310 4.130 41.436
106.320 4.420 24.665
106.330 4.280 30.648
106.340 3.970 33.602
106.350 4.920 34.648
106.360 4.520 38.138
106.370 4.550 29.285
106.390 4.010 44.006
106.400 4.190 34.016
106.410 4.050 34.583
106.420 4.350 43.645
106.430 4.180 41.772
106.450 3.840 36.355
106.470 3.880 36.733
106.480 4.170 43.930
106.780 4.460 41.493
106.810 4.580 39.467
106.830 4.300 38.585
106.860 4.300 30.537
106.870 4.070 42.178
106.880 4.110 44.890
106.920 4.890 14.192
106.930 4.390 37.780
106.950 4.580 38.674
107.020 4.720 22.101
107.040 4.950 22.209
107.050 4.220 28.360
107.070 4.430 37.486
107.080 4.290 31.062
107.090 4.150 14.462
107.110 4.470 37.943
107.120 3.980 19.762
107.130 4.380 14.237
107.140 4.240 9.824
107.150 4.070 8.350
107.170 4.610 13.608
107.180 4.030 30.317
107.230 4.200 28.731
107.240 4.690 16.935
107.360 4.460 23.012
107.370 4.570 34.545
107.380 4.370 27.650
107.390 4.570 26.966
107.400 4.630 37.069
107.410 4.830 35.514
107.430 4.480 25.842
107.470 4.740 21.580
107.480 4.480 36.411
107.490 4.080 36.206
107.500 4.870 14.249
107.510 4.220 28.337
107.520 4.400 9.374
107.530 4.280 37.371
107.550 4.550 28.975
107.560 4.460 44.264
107.570 4.820 23.422
107.580 4.840 41.524
107.590 4.600 16.485
107.600 4.450 24.729
107.610 4.590 16.067
107.620 4.420 36.810
107.640 4.330 32.066
107.650 4.140 26.041
107.660 4.550 28.108
107.670 4.420 33.309
108.050 4.620 26.325
108.060 4.770 16.041
108.070 4.580 31.032
108.090 4.280 37.658
108.100 3.860 18.526
108.110 4.220 39.626
108.120 4.250 32.401
108.130 4.070 33.227
108.140 4.550 43.602
108.150 4.000 26.505
108.160 4.230 34.438
108.200 4.700 37.795
108.210 4.390 19.080
108.290 4.600 39.381
108.330 4.880 37.847
108.340 4.660 26.372
108.350 3.770 25.051
108.370 4.220 25.604
108.690 3.910 36.076
108.700 4.130 32.200
108.710 3.670 32.216
108.740 4.310 35.056
108.750 4.200 40.538
108.760 4.910 33.961
108.780 3.800 30.990
108.820 4.820 40.732
108.830 4.510 40.130
108.850 3.730 25.869
108.870 4.280 21.697
108.910 4.900 43.965
108.920 3.650 20.863
108.960 4.140 44.735
109.000 4.040 26.651
109.010 4.120 24.372
109.020 4.770 36.629
109.080 4.460 38.580
112.740 4.090 35.454
112.780 4.650 41.115
112.790 4.630 37.467
112.810 4.590 27.619
112.910 4.360 41.745
113.040 4.310 44.653
113.050 4.180 33.022
113.080 4.090 42.079
113.090 4.240 42.665
113.110 4.650 34.262
113.130 4.490 40.621
113.140 4.490 39.497
113.160 4.530 21.555
113.170 4.220 35.531
113.180 4.200 42.507
113.190 4.240 41.482
113.200 4.360 28.165
113.210 4.030 39.608
113.240 4.410 38.652
113.260 4.150 20.080
113.270 3.890 37.769
113.280 4.310 38.238
113.320 4.440 40.401
113.330 4.380 42.538
113.350 4.260 41.071
113.360 4.600 44.167
113.430 4.560 36.533
113.440 4.050 26.111
113.450 3.910 27.682
113.460 3.980 25.366
113.480 4.810 32.208
113.490 4.290 36.821
113.500 4.190 40.011
113.510 4.380 39.059
113.530 4.540 18.864
113.570 4.220 31.413
113.580 3.920 31.284
113.600 4.960 39.503
113.630 3.840 23.854
113.760 4.300 30.392
114.130 4.550 38.709
114.160 4.490 38.755
114.170 4.290 37.479
114.200 4.950 44.548
114.210 4.040 38.857
114.240 4.270 36.759
114.250 4.530 40.201
114.260 4.890 41.145
114.280 4.650 40.944
114.290 4.010 35.404
114.310 4.130 40.272
114.320 4.410 28.803
114.330 3.970 36.331
114.340 4.130 41.106
114.360 4.100 41.321
114.370 4.220 24.420
114.390 4.440 38.365
114.400 4.320 37.763
114.450 4.150 38.135
114.460 4.500 41.148
114.490 4.230 42.873
114.520 4.180 44.854
114.550 4.460 40.567
114.560 4.410 42.685
114.570 4.280 39.736
114.580 4.080 43.298
114.590 4.150 33.575
114.600 4.100 33.080
114.610 4.350 17.954
114.630 4.440 21.863
114.640 4.400 22.283
114.650 4.470 37.887
114.660 4.810 23.997
114.670 4.180 43.790
114.700 4.710 38.966
114.720 4.270 26.466
114.730 4.360 35.005
114.800 4.320 22.605
114.820 4.520 34.067
114.830 4.130 44.702
114.840 4.710 36.807
114.950 4.150 44.699
114.980 4.330 42.770
115.050 4.100 43.734
115.070 4.180 32.161
115.080 4.450 18.910
115.090 4.510 44.017
115.100 3.800 39.960
115.110 4.180 39.515
115.130 4.110 26.250
115.170 4.140 41.142
115.230 3.710 22.848
115.240 4.670 27.217
119.140 4.900 44.394
119.420 4.560 23.833
119.450 4.590 17.431
119.460 4.830 43.984
119.480 4.250 36.787
119.490 4.760 28.933
119.570 4.420 41.559
119.590 4.420 20.917
119.600 4.280 18.725
119.620 4.800 43.763
119.630 4.070 40.274
119.650 4.920 44.247
119.680 4.450 33.756
119.720 4.610 37.217
119.770 4.510 12.461
119.790 4.060 29.071
119.800 4.740 42.643
119.820 4.910 23.935
119.840 4.740 37.398
119.870 4.110 18.329
119.880 4.610 44.444
119.890 4.400 24.859
119.910 4.710 41.778
119.920 4.640 43.452
119.960 4.240 42.807
119.980 4.270 39.434
119.990 4.090 43.302
120.000 4.540 44.881
120.090 4.370 36.061
120.100 4.310 8.680
120.110 4.020 33.977
120.130 4.510 29.038
120.150 4.990 28.206
120.160 4.620 41.297
120.170 3.970 32.014
120.180 4.220 38.018
120.190 4.100 44.144
120.200 3.750 37.635
120.240 4.930 36.648
120.250 4.360 44.955
120.270 4.090 32.927
120.290 4.180 37.018
120.310 4.120 28.903
120.330 3.850 34.313
120.370 4.560 36.089
120.390 4.350 34.469
120.420 4.280 43.700
120.450 4.130 42.990
120.460 4.390 34.484
120.490 4.570 27.259
120.520 4.750 40.100
120.540 3.930 26.690
120.550 4.350 35.095
120.600 4.990 39.004
120.680 4.410 38.359
120.690 4.850 44.452
120.710 4.450 39.017
120.800 4.930 42.110
120.950 4.670 40.460
120.960 4.000 32.714
120.970 4.290 40.026
120.980 3.800 30.284
120.990 4.580 23.064
121.050 4.160 44.626
121.100 4.430 42.516
121.130 4.530 28.802
121.140 4.760 26.834
121.150 4.150 26.139
121.160 4.640 30.046
121.180 4.490 26.291
121.190 4.220 31.052
121.200 4.350 35.292
121.210 4.040 43.060
121.220 4.260 27.332
121.230 3.960 33.400
121.240 4.060 20.411
121.250 3.650 19.706
121.260 3.690 4.148
121.280 3.750 21.186
121.290 4.070 26.090
121.320 4.720 25.477
121.330 4.450 28.089
121.340 4.830 34.544
121.350 4.330 27.400
121.360 4.830 27.498
121.370 4.480 29.759
121.380 4.300 30.728
121.390 4.340 12.911
121.410 4.570 17.049
121.420 4.300 29.487
121.430 4.590 33.282
121.440 4.100 20.128
121.450 4.160 3.852
121.460 4.260 22.375
121.470 3.770 24.557
121.480 3.840 13.925
121.490 4.550 5.421
121.500 3.820 4.623
121.510 3.670 20.702
121.520 3.490 18.241
121.530 3.670 25.649
121.540 4.070 29.178
121.550 3.940 27.081
121.560 3.910 18.946
121.570 3.700 8.745
121.580 3.700 17.905
121.600 4.200 37.941
121.610 3.960 22.923
121.620 4.350 25.265
121.630 4.880 33.124
121.640 4.020 25.458
121.650 3.910 22.025
121.660 4.600 14.966
121.670 4.740 31.095
121.770 4.410 5.879
121.780 4.530 34.691
126.280 4.440 20.164
126.440 4.960 28.163
126.490 4.610 22.337
126.500 4.790 21.281
126.510 4.960 21.664
126.520 4.720 34.755
126.530 4.420 35.344
126.540 4.400 15.919
126.560 4.940 7.489
126.570 4.710 21.063
126.580 4.940 29.047
153.290 4.730 29.027
153.310 4.840 35.633
153.380 4.700 31.690
153.440 4.340 17.416
153.450 4.780 35.913
153.460 4.430 10.869
153.470 4.210 32.755
153.480 4.160 38.258
153.500 4.200 37.247
153.560 4.770 28.770
153.870 4.400 39.863
154.700 4.700 38.840
155.400 4.620 40.399
155.520 4.850 36.658
155.780 4.990 27.096
155.900 4.120 23.816
155.910 4.440 42.835
156.000 4.710 31.828
156.060 4.420 24.933
156.070 4.880 25.201
156.210 4.270 27.846
156.220 4.760 15.655
156.230 4.780 33.239
156.240 4.860 8.704
156.250 4.010 43.309
156.260 4.800 16.860
156.270 4.890 19.183
156.310 4.870 19.260
156.360 4.980 35.806
156.380 4.750 35.183
156.440 4.960 12.032
156.460 4.280 17.656
156.470 4.850 15.045
156.490 4.930 4.306
156.550 4.620 41.386
156.560 4.310 19.719
156.570 4.710 10.366
156.610 4.090 25.220
156.620 4.490 17.388
156.630 4.600 40.936
156.650 4.600 22.864
156.670 4.960 21.307
156.930 4.570 21.007
157.220 4.630 31.711
157.490 4.570 7.307
157.500 4.640 16.868
157.540 4.880 17.153
157.590 4.560 16.860
157.600 4.600 29.830
157.610 4.870 31.898
157.640 4.350 41.771
157.740 4.270 32.040
157.760 3.830 38.402
157.780 4.890 7.463
157.790 4.920 19.977
157.800 4.800 24.476
157.830 4.820 26.247
157.860 4.660 16.103
157.880 4.980 39.943
157.950 4.820 20.107
157.990 4.850 19.714
158.000 4.180 27.440
158.010 4.370 37.628
158.020 4.380 33.744
158.050 4.350 33.830
158.160 4.970 9.016
158.450 4.630 40.094
158.870 4.830 21.123
158.910 4.850 38.741
159.140 4.170 37.198
159.160 4.430 41.600
159.170 4.020 9.703
159.180 4.900 37.537
159.190 4.590 28.167
159.200 4.430 41.851
159.210 4.510 27.174
159.220 4.620 32.860
159.240 4.830 3.170
159.640 4.400 43.722
159.720 4.660 21.526
159.730 4.150 28.297
159.780 4.810 8.787
159.990 4.110 27.538
160.000 4.940 14.364
160.010 4.310 18.294
160.020 4.410 23.816
160.030 4.750 16.731
160.050 4.350 28.906
160.060 4.560 27.175
160.070 4.910 26.061
160.080 4.850 10.340
160.090 4.360 23.051
160.100 4.900 10.223
160.110 4.510 21.586
160.120 4.960 15.103
160.170 4.990 26.372
160.180 4.560 16.533
160.190 4.300 25.972
160.220 4.840 28.259
160.230 4.800 23.634
160.240 4.670 25.578
160.390 4.620 31.102
160.460 4.430 26.350
160.470 4.890 19.903
160.490 4.990 38.668
160.510 4.990 35.918
160.550 4.980 14.910
160.560 4.510 40.651
160.570 4.490 23.264
160.660 4.830 15.536
160.910 4.960 26.791
161.450 4.790 21.685
161.520 4.280 33.637
161.800 4.640 27.972
161.850 4.840 16.234
161.860 4.680 21.031
161.970 4.980 35.246
161.980 4.700 37.030
161.990 4.460 16.230
162.020 4.380 39.683
162.030 4.980 8.209
162.190 4.460 4.681
162.250 4.470 19.899
162.260 4.750 19.952
162.420 4.950 23.417
162.450 4.060 42.249
162.460 4.770 39.218
162.480 4.350 18.156
162.490 4.950 3.843
162.500 4.090 13.084
162.610 4.570 8.669
162.620 4.780 12.240
162.650 4.540 11.073
162.660 4.350 32.083
162.670 4.620 22.415
162.680 4.020 34.712
162.690 4.150 15.563
162.700 4.290 36.854
162.710 4.910 6.871
162.720 4.610 32.011
162.730 4.290 19.725
162.740 4.900 39.147
162.760 4.800 15.916
162.790 4.560 14.125
162.840 4.910 18.388
162.850 4.410 33.911
162.860 4.300 41.953
162.870 4.990 23.874
162.880 4.910 19.889
162.900 4.950 10.426
162.920 4.680 16.826
162.930 4.920 21.344
162.940 4.840 22.226
162.950 4.770 15.352
162.980 4.890 29.898
163.000 4.470 25.252
163.120 4.700 39.338
163.130 4.510 37.775
163.150 4.810 38.425
163.160 4.480 38.852
163.170 4.620 29.114
163.180 4.640 19.801
163.190 4.990 28.012
163.210 4.870 21.172
163.220 4.480 38.935
163.240 4.610 41.378
163.250 4.440 10.857
163.280 4.960 41.814
163.300 4.150 38.478
163.320 4.790 43.690
163.330 4.990 7.738
163.340 4.880 4.832
163.360 4.890 17.583
163.370 4.930 23.214
163.400 4.770 28.208
163.450 4.990 14.267
163.470 4.970 33.921
163.620 4.800 26.837
163.670 4.820 24.014
163.680 4.560 42.069
163.710 4.680 31.499
163.730 4.590 22.155
163.760 4.990 23.872
163.850 4.950 12.444
163.860 4.950 18.976
163.870 4.940 27.958
163.880 4.680 38.786
163.920 4.930 10.667
163.930 4.660 30.907
163.940 4.790 27.774
163.950 4.660 22.997
163.960 4.140 42.702
163.970 4.410 40.042
163.980 4.660 23.226
164.010 4.550 28.623
164.020 4.260 24.222
164.040 4.050 26.781
164.050 4.950 17.251
164.060 4.670 6.538
164.070 4.470 35.806
164.090 4.690 42.918
170.680 4.370 39.732
170.700 4.140 28.194
170.710 4.220 42.657
170.720 4.690 26.157
170.760 4.400 25.381
170.850 4.330 30.528
170.870 4.760 22.443
170.890 4.980 37.900
170.920 4.870 23.328
170.970 4.600 22.445
171.010 4.670 43.848
171.020 4.200 38.689
171.030 4.520 44.353
171.040 4.250 41.517
171.050 4.410 33.321
171.060 4.710 41.978
171.070 4.130 27.073
171.080 4.440 42.369
171.120 4.080 7.731
171.130 4.300 17.313
171.140 4.310 35.499
171.150 4.400 35.767
171.160 3.860 30.289
171.170 4.010 36.959
171.180 3.960 23.011
171.190 4.170 29.797
171.200 4.170 44.340
171.210 4.500 25.584
171.220 4.280 31.317
171.230 4.860 39.199
171.240 4.040 26.431
171.260 4.130 22.652
171.270 4.290 19.825
171.280 4.070 44.028
171.290 4.870 28.922
171.300 4.800 21.148
171.320 4.880 38.745
171.330 4.720 44.404
171.380 4.700 29.052
171.400 4.420 14.392
171.410 4.440 41.088
171.420 4.000 40.853
171.430 4.090 22.012
171.440 3.900 26.073
171.450 3.770 15.337
171.460 3.740 21.344
171.470 3.830 10.964
171.480 4.100 28.577
171.490 3.860 37.962
171.500 4.280 34.445
171.510 4.480 17.310
171.520 3.790 25.734
171.530 3.830 27.005
171.540 4.030 33.209
171.550 4.080 33.318
171.560 4.350 35.034
171.570 4.270 39.185
171.580 4.170 40.363
171.600 4.210 39.952
171.610 4.240 42.248
171.620 3.890 17.014
171.660 4.270 31.309
171.670 4.480 31.598
171.680 4.250 41.119
171.690 4.210 35.568
171.730 4.120 19.204
171.760 4.130 26.568
171.770 4.050 40.039
171.810 4.340 39.163
171.820 4.540 38.914
171.830 4.340 31.692
171.840 4.240 27.902
171.850 4.130 19.851
171.860 4.150 23.322
171.870 4.620 38.554
171.910 4.750 38.249
195.390 4.050 13.513
195.410 4.390 42.288
195.420 3.810 20.292
195.430 3.690 6.749
195.440 3.960 5.793
195.450 4.000 16.608
195.460 3.830 15.017
195.480 3.770 26.797
195.490 3.950 10.638
195.500 3.750 35.649
195.510 4.090 39.323
195.520 4.490 33.755
195.540 4.230 29.446
195.550 4.310 25.613
195.560 3.930 29.549
195.570 3.760 14.860
195.580 3.740 20.612
195.590 3.790 15.791
195.610 3.710 15.676
195.620 4.080 6.223
195.640 4.220 23.823
195.660 4.330 31.652
195.670 4.580 16.447
195.700 4.420 15.521
195.970 4.660 25.710
196.010 4.390 35.531
196.040 4.970 34.394
196.050 4.930 31.565
196.080 4.770 44.442
196.090 4.240 33.915
196.150 4.230 29.570
196.160 4.280 41.606
196.190 4.570 29.814
196.210 4.110 35.117
196.220 4.200 37.850
196.230 4.370 38.016
196.280 4.900 24.800
196.300 4.390 41.659
196.340 4.130 22.467
196.360 4.230 34.570
196.380 4.960 27.881
196.390 4.670 16.429
196.490 4.480 29.304
196.500 4.340 36.738
196.510 4.570 38.571
196.520 4.300 43.304
196.530 4.160 28.949
196.540 4.810 44.073
196.570 4.180 38.656
196.600 4.280 29.602
196.620 4.490 27.765
196.630 4.440 37.216
196.640 4.050 32.092
196.650 4.410 5.783
196.660 4.630 33.750
196.670 4.610 22.606
196.680 3.990 19.487
196.690 4.130 36.727
196.700 4.020 31.278
196.710 4.050 18.947
196.720 4.610 16.307
196.740 4.910 13.561
196.800 4.560 19.168
196.930 4.740 30.413
196.940 4.450 20.997
197.200 4.650 32.785
197.210 4.620 28.056
197.220 4.780 44.728
197.230 4.740 15.308
197.260 4.550 44.363
197.270 4.770 39.006
197.280 4.940 39.573
197.290 4.610 31.038
204.190 4.100 34.865
204.200 3.980 17.318
204.210 3.640 19.605
204.220 4.940 26.905
204.230 4.960 18.165
204.290 4.920 43.787
204.310 4.460 41.266
204.330 4.830 43.499
204.340 4.790 34.501
204.350 4.860 23.407
204.380 4.570 11.537
204.390 4.550 11.437
204.400 4.350 32.562
204.410 4.710 25.405
204.420 4.470 23.304
204.460 4.790 41.717
204.480 4.750 9.222
204.490 4.070 13.264
204.520 4.330 38.877
204.530 4.960 21.816
204.540 4.410 9.933
204.550 4.660 26.917
204.560 4.750 34.419
204.570 4.710 26.670
204.670 4.830 15.026
204.680 4.310 40.812
204.730 4.210 23.289
204.740 4.830 7.355
208.590 4.180 26.006
208.610 4.750 30.877
208.620 3.980 42.916
208.640 3.820 14.901
208.650 4.210 30.460
208.670 4.540 21.988
208.700 4.400 4.255
208.720 3.930 9.754
208.750 4.270 26.928
208.760 4.170 44.498
208.770 4.030 28.303
208.780 4.420 43.273
208.790 4.220 38.711
208.810 4.210 34.949
208.830 4.360 39.404
208.840 4.480 42.817
208.850 3.710 13.771
208.860 3.870 18.391
208.870 3.750 10.215
208.930 4.390 35.961
208.940 4.440 5.567
208.950 4.460 37.514
208.960 4.190 14.836
208.970 4.200 35.667
208.990 4.250 26.517
209.000 3.930 23.709
209.010 4.300 30.346
209.020 4.720 40.232
209.050 4.590 24.662
209.090 4.390 20.865
209.100 4.150 16.885
209.120 4.110 24.953
209.130 4.650 39.929
209.140 4.400 36.969
209.170 4.450 20.093
209.180 4.280 23.073
209.190 4.350 22.790
209.200 4.180 44.713
209.230 4.350 35.550
209.260 3.950 30.752
209.270 3.660 22.651
209.290 3.890 24.493
209.300 3.850 21.559
209.310 4.380 17.168
209.320 4.320 14.390
209.330 3.980 14.351
209.340 3.980 24.313
209.360 4.070 43.920
209.370 4.490 17.792
209.390 4.430 35.643
209.580 4.440 33.590
209.590 4.900 21.409
209.610 4.240 9.821
209.640 4.200 35.953
209.720 4.150 38.792
209.730 4.250 34.412
209.810 3.850 40.029
209.820 3.680 32.702
209.830 4.130 28.378
209.840 4.800 21.487
209.850 4.480 15.226
209.860 4.140 26.884
209.870 4.220 39.742
209.880 4.700 28.931
209.890 4.790 33.845
209.900 4.410 32.953
209.920 4.770 30.645
209.940 4.230 42.425
209.950 4.690 13.587
209.990 4.590 12.297
210.010 4.440 14.559
210.020 4.430 8.405
210.050 4.080 26.232
210.120 3.830 23.252
210.150 4.730 22.182
210.160 4.420 34.929
210.170 4.610 40.074
210.180 4.350 36.424
210.210 4.470 37.372
210.220 4.240 32.219
210.230 4.750 29.738
210.240 4.400 21.754
210.250 4.710 30.414
210.260 4.670 20.998
210.270 4.430 22.331
210.280 4.660 24.730
210.350 4.220 16.171
210.360 4.420 32.637
210.380 4.000 11.923
210.390 4.050 13.344
210.400 4.330 17.236
210.410 4.500 34.886
210.420 4.170 42.433
210.440 4.690 29.805
210.460 4.310 6.339
210.470 4.630 43.078
210.480 4.050 22.619
210.490 4.440 31.658
210.500 3.870 25.117
210.510 3.870 18.107
210.520 4.840 29.726
210.530 4.340 24.197
210.540 4.830 37.075
210.550 4.550 30.993
210.560 4.760 9.253
210.570 4.480 14.584
210.580 4.460 25.600
210.600 4.860 36.148
210.620 4.700 27.578
210.630 3.860 21.707
210.640 4.390 13.977
210.650 4.730 29.045
210.710 4.610 36.948
210.720 4.410 34.668
210.730 4.090 40.550
210.740 4.480 43.921
210.750 4.370 13.162
210.770 4.200 22.073
210.780 4.250 34.645
210.800 4.110 31.385
210.810 4.410 31.926
210.820 4.180 33.903
210.880 4.250 30.065
210.890 3.880 15.182
210.900 4.030 33.522
210.950 3.970 31.039
210.960 4.040 40.382
210.970 4.340 37.982
210.980 3.980 27.789
210.990 4.060 34.439
211.000 4.330 42.085
211.010 4.610 40.022
211.020 3.820 33.154
211.030 3.980 41.489
211.050 4.160 38.117
211.090 4.360 30.868
211.110 3.940 39.306
211.120 4.460 34.648
211.130 4.380 43.217
211.140 4.050 44.915
211.150 4.110 30.783
211.160 4.250 43.224
211.170 4.390 29.427
211.180 4.480 33.261
211.190 4.490 20.591
211.200 3.800 19.721
211.210 4.230 32.066
211.220 4.340 34.229
211.230 4.330 30.909
211.240 4.840 29.481
211.250 4.070 32.604
211.270 4.270 33.971
211.280 4.050 32.680
211.290 3.920 25.118
211.300 4.170 2.125
211.310 4.170 23.536
211.320 3.950 23.830
211.330 3.950 22.696
211.340 4.360 19.191
211.350 4.120 15.983
211.360 4.240 32.025
211.380 4.940 42.918
211.390 4.440 32.666
211.400 4.140 31.407
211.420 4.090 31.047
211.430 3.890 20.773
211.460 4.120 26.123
211.470 4.350 23.087
211.480 4.400 26.753
211.490 4.610 42.597
211.500 4.110 26.454
211.510 3.910 35.279
211.550 4.040 33.147
211.570 4.020 36.006
211.600 4.150 44.932
211.640 4.230 43.496
211.650 4.340 33.290
211.670 4.110 35.622
211.700 4.080 15.879
211.710 4.420 17.435
211.740 4.480 41.597
211.760 4.560 42.527
211.780 4.100 42.084
211.790 3.930 37.264
211.810 4.200 20.397
211.820 4.420 41.124
211.830 4.230 36.582
211.870 4.340 39.732
211.880 4.330 30.455
211.900 4.740 38.443
211.910 4.150 22.760
211.930 4.430 18.481
211.940 4.380 28.213
211.950 4.320 19.635
211.970 4.270 25.684
211.980 4.530 18.101
211.990 4.220 36.858
212.020 4.550 36.759
212.040 4.560 40.855
212.060 4.380 40.311
212.070 4.450 28.715
212.110 4.880 42.371
212.160 4.510 44.594
212.170 4.120 17.935
212.180 4.100 21.472
212.190 4.020 22.852
212.210 4.110 21.605
212.220 4.210 39.921
212.240 4.520 12.319
212.260 4.290 28.301
212.300 4.250 30.272
212.310 4.360 36.665
212.330 4.560 32.999
212.340 4.550 28.167
212.350 4.360 21.318
212.400 4.150 30.745
212.410 4.130 29.008
212.420 4.960 26.599
212.430 3.950 26.794
212.440 4.210 22.176
212.450 4.210 23.377
212.460 4.300 36.626
212.480 4.960 10.947
212.490 4.230 34.607
212.500 4.060 37.123
212.510 4.950 16.024
212.520 4.520 26.918
212.530 4.470 43.122
212.550 4.000 25.195
212.560 4.800 31.698
212.590 4.370 35.329
212.610 4.240 35.241
212.620 3.850 23.910
212.630 4.050 18.592
212.640 3.870 31.244
212.650 4.770 38.749
212.680 4.770 44.970
212.770 4.360 32.806
212.780 4.090 26.035
212.800 4.240 42.736
212.830 4.140 37.788
212.850 4.030 44.360
212.860 3.850 23.415
212.870 4.390 13.923
212.880 4.310 24.806
212.890 3.910 21.548
212.900 3.940 18.357
212.910 3.860 32.976
212.920 4.030 18.414
212.930 3.900 28.124
212.940 3.990 31.506
212.950 4.470 13.891
212.960 4.070 21.758
212.970 4.040 28.900
212.980 4.090 15.786
212.990 3.950 17.837
213.000 3.920 13.206
213.010 4.090 14.323
213.310 4.030 19.129
213.330 4.170 30.319
213.340 3.930 43.248
213.350 4.250 10.475
213.360 3.970 32.063
213.390 4.020 28.521
213.400 4.440 32.060
213.440 4.060 32.606
213.450 4.330 42.903
213.480 3.910 31.604
213.490 4.110 34.128
213.500 4.170 37.952
213.510 4.530 13.686
213.530 4.350 26.469
213.580 4.340 37.975
213.600 4.900 35.791
213.610 4.750 37.584
213.620 4.340 43.338
213.630 4.220 39.727
213.640 4.030 28.275
213.650 4.630 41.079
234.480 4.920 42.636
237.190 4.650 37.049
237.660 3.910 16.538
237.670 3.910 16.752
241.620 4.530 18.105
241.630 4.360 27.880
241.650 4.350 25.880
241.660 4.320 38.226
241.670 4.630 24.221
241.680 4.560 9.544
241.690 4.480 38.097
241.710 4.860 17.210
241.820 4.960 42.072
241.840 4.490 16.275
241.850 4.220 6.231
241.860 4.150 13.224
241.870 4.680 44.358
241.930 4.340 19.357
241.940 4.210 38.887
241.950 4.680 22.901
241.980 4.400 34.097
242.020 4.660 18.678
242.030 4.630 37.972
242.040 3.980 17.648
242.050 3.960 22.114
242.060 4.280 38.681
242.070 4.280 29.856
242.080 4.250 19.768
242.090 4.320 30.887
242.230 4.330 9.543
242.240 3.920 30.191
242.250 4.280 16.954
242.260 4.020 20.740
242.270 4.090 22.002
242.280 4.000 32.911
242.290 3.960 18.072
242.300 4.950 35.276
242.310 4.680 40.768
242.340 4.650 41.815
242.350 4.500 21.429
242.380 4.190 13.987
242.390 3.680 32.525
242.400 4.250 14.984
242.410 4.250 8.283
242.460 4.760 43.368
242.480 4.040 36.344
242.510 4.750 38.456
242.520 4.830 13.148
242.550 4.470 40.386
242.570 4.740 32.010
242.580 4.440 40.684
242.600 4.630 35.018
242.660 3.920 5.070
242.670 4.160 44.694
242.690 4.390 38.042
242.720 4.910 30.382
242.730 4.160 34.979
242.750 4.620 20.724
242.790 4.640 15.630
242.820 4.670 22.490
242.840 4.450 37.655
242.860 4.690 38.773
242.870 4.360 30.148
242.880 4.240 37.877
242.890 4.190 20.935
242.900 4.460 35.469
242.920 4.640 44.771
243.190 4.280 28.859
243.200 4.470 29.706
243.210 4.700 27.461
243.230 4.420 31.804
243.240 4.060 6.504
243.250 4.150 20.450
243.260 3.660 23.790
243.270 3.570 20.268
243.280 4.280 8.250
243.290 4.430 23.275
243.300 4.240 9.233
243.310 4.410 20.148
243.320 4.750 25.791
243.330 4.110 3.698
243.340 4.260 2.085
243.350 4.080 7.988
243.360 3.920 10.440
243.370 4.060 29.000
243.380 4.210 43.847
243.390 4.550 22.110
243.410 4.180 18.315
243.420 4.650 40.013
243.430 4.670 41.356
243.440 4.570 33.440
243.450 4.660 36.278
243.460 4.650 29.771
243.480 3.900 26.071
243.510 4.510 39.887
243.530 3.920 3.057
243.540 4.050 22.397
243.550 3.750 18.645
243.560 4.050 12.095
243.570 4.160 9.930
243.580 3.920 6.671
243.590 4.300 44.301
243.600 4.290 21.473
243.610 3.910 13.882
243.620 4.330 14.385
243.630 4.070 13.625
243.640 4.100 39.042
243.650 4.700 13.353
243.660 4.790 44.994
243.700 4.610 21.317
243.710 4.090 27.891
243.720 4.360 16.979
243.730 4.460 33.348
243.740 4.450 24.493
243.760 4.310 21.745
243.780 4.180 18.295
243.790 4.500 32.077
243.800 4.140 39.098
243.830 4.730 40.713
243.840 4.270 24.844
243.850 4.400 15.004
243.860 4.820 7.414
243.870 4.200 4.643
243.890 4.630 35.496
243.920 4.590 18.208
243.960 4.240 19.469
243.970 4.020 38.245
243.980 4.200 35.400
244.480 4.660 38.542
248.440 3.590 23.707
248.490 4.320 43.105
248.510 4.660 25.140
248.520 4.640 5.518
248.530 4.360 16.436
248.540 4.180 41.101
248.550 3.830 13.561
248.560 3.920 7.317
248.570 4.630 37.749
248.920 4.850 8.142
248.930 4.700 4.786
248.940 4.030 29.713
248.950 4.050 28.605
249.000 4.060 41.057
249.010 4.020 25.313
249.070 4.650 26.757
249.090 4.870 25.666
249.190 4.350 19.147
249.200 4.210 12.927
249.240 4.790 23.899
249.270 4.170 28.142
249.280 4.860 20.453
249.320 4.080 19.735
249.370 4.400 39.759
250.760 4.050 13.753
250.780 4.730 15.908
250.790 4.010 30.728
250.800 4.600 35.407
250.810 4.190 6.600
250.830 4.590 27.693
250.840 4.460 23.895
250.850 4.260 35.225
250.890 4.680 44.939
250.900 4.180 10.287
250.910 4.290 22.750
250.920 4.460 35.738
250.930 4.200 18.454
251.120 4.670 23.027
251.140 4.300 28.578
251.150 4.330 35.844
251.160 3.730 9.620
251.170 3.990 5.531
251.190 4.350 22.130
251.210 4.520 37.622
251.220 4.210 31.302
251.230 4.060 19.986
251.240 4.330 2.588
251.250 4.660 10.289
251.260 4.520 30.520
251.270 4.150 37.835
251.280 4.230 11.404
251.310 3.930 42.232
251.320 4.270 26.555
251.330 4.680 35.054
251.340 4.670 37.509
251.350 4.600 40.014
251.360 3.880 32.254
251.370 4.950 35.776
251.400 4.610 40.738
251.420 4.710 41.582
251.430 4.270 42.364
251.450 4.070 37.147
251.480 4.670 30.368
251.490 4.520 30.742
251.500 4.460 13.355
251.550 4.840 16.787
251.580 4.700 25.196
251.600 4.720 21.994
251.610 4.450 19.383
251.620 4.840 27.274
251.630 4.360 42.303
251.640 4.480 36.464
251.690 4.950 40.668
251.700 4.910 17.465
251.720 4.420 20.402
251.730 4.310 23.912
251.740 4.460 19.315
251.750 4.500 20.307
251.760 4.740 43.924
251.770 4.860 24.494
251.950 4.480 30.063
251.970 4.780 34.501
251.980 4.270 24.684
252.010 4.730 34.527
252.040 4.420 35.241
252.050 4.490 38.836
252.060 4.460 28.700
252.080 4.400 21.061
252.090 4.380 21.841
252.100 4.290 16.045
252.110 3.760 20.656
252.120 3.710 24.947
252.130 4.240 42.477
252.140 4.430 12.269
252.160 4.110 34.766
252.170 4.480 33.998
252.180 4.290 29.084
252.210 4.350 32.472
252.220 4.340 39.090
252.240 4.760 36.322
252.250 4.790 20.950
252.270 4.640 29.091
252.310 4.780 5.105
252.320 4.160 43.391
252.330 4.110 4.890
252.350 4.640 43.864
252.410 4.490 34.689
252.430 4.470 32.697
252.440 4.470 34.219
252.450 4.800 25.546
252.480 4.290 0.590
252.490 4.400 10.949
252.500 3.910 20.701
252.510 4.390 32.391
252.520 4.040 14.125
252.530 4.370 15.208
252.540 3.950 18.204
252.610 4.500 24.321
252.620 4.210 17.563
252.630 4.250 32.160
252.640 4.050 44.124
252.650 4.450 37.720
252.660 4.650 30.902
252.670 4.980 30.198
252.680 4.540 25.321
252.690 4.080 9.251
252.700 4.080 15.119
252.710 4.160 42.802
252.720 4.100 11.446
252.730 4.970 11.235
252.740 3.910 27.269
252.750 4.390 19.369
252.760 3.840 15.787
252.770 4.260 29.306
252.780 4.520 21.952
252.820 4.590 39.026
252.830 4.230 36.151
252.860 4.650 32.443
252.880 4.120 29.681
252.890 4.700 37.991
252.900 4.660 21.186
252.910 4.590 31.235
253.050 4.650 29.906
253.060 3.760 35.237
253.070 4.400 9.954
253.100 4.950 38.597
253.110 4.400 40.327
253.120 4.830 35.781
253.130 4.590 27.184
253.150 4.990 29.239
253.190 4.230 39.017
253.200 4.070 39.707
253.210 4.280 41.012
253.220 4.700 14.728
253.250 4.350 34.132
253.260 4.640 21.018
253.320 4.830 24.590
253.330 4.580 34.133
253.340 4.390 19.374
253.350 4.300 30.154
253.360 4.430 27.760
253.370 4.210 27.019
253.450 4.880 4.585
253.470 4.520 35.013
253.480 4.570 34.347
253.500 4.260 22.464
253.510 4.650 22.662
253.550 4.850 22.732
253.600 4.470 28.711
253.630 4.850 20.539
253.640 4.640 22.176
253.680 4.190 4.336
253.690 4.510 35.549
253.700 4.090 27.058
253.710 4.530 37.060
253.720 4.360 3.289
253.750 4.990 29.506
253.760 4.040 15.318
253.770 4.240 16.747
253.820 4.700 32.837
253.840 4.330 19.702
253.880 4.800 26.204
253.890 4.860 25.642
254.050 4.660 3.917
254.070 4.740 11.117
254.090 4.240 28.729
254.130 4.640 29.034
254.190 4.460 15.428
254.220 3.960 17.632
254.230 4.510 44.798
254.240 3.920 10.436
254.250 3.730 4.341
254.280 4.850 12.739
254.360 4.430 22.001
254.380 4.600 44.515
254.390 4.340 38.748
254.400 4.490 29.617
254.430 4.290 44.954
254.450 4.400 5.161
254.530 4.520 17.596
254.540 4.490 17.600
254.550 4.360 12.587
254.560 3.940 22.073
254.580 4.040 20.193
254.600 4.060 8.342
260.070 4.310 35.547
260.080 4.290 27.408
260.090 4.340 39.071
260.130 4.970 13.851
260.150 4.380 26.417
260.160 4.400 21.839
260.180 4.400 21.533
260.190 4.210 23.285
260.200 4.410 27.241
265.050 4.450 42.877
265.060 4.110 43.343
265.070 3.680 26.164
265.080 4.530 12.561
265.090 4.360 12.247
265.100 3.860 37.215
265.110 3.880 37.342
265.120 4.210 27.038
265.130 3.930 13.162
265.140 4.100 20.274
265.150 3.850 18.597
265.170 4.000 17.929
265.180 4.190 27.706
265.190 4.120 23.632
265.220 4.360 29.600
265.240 4.560 42.017
265.260 4.300 29.664
265.270 4.060 39.220
265.280 4.240 44.473
265.290 4.940 25.281
265.330 4.160 33.869
265.340 4.660 35.845
265.350 4.690 28.796
265.360 4.500 41.597
265.370 4.110 42.758
265.380 4.120 23.823
265.400 3.940 22.467
265.410 4.030 19.895
265.420 4.270 27.414
265.430 4.490 37.449
265.440 4.120 31.579
265.450 4.520 27.114
265.460 3.780 8.573
265.470 3.600 18.791
265.480 4.180 31.448
265.490 4.010 4.094
265.500 3.730 20.718
265.510 4.260 34.558
265.520 4.140 20.023
265.530 3.860 15.626
265.540 4.040 16.943
265.550 4.070 25.623
265.560 4.320 26.229
265.570 3.820 27.591
265.600 4.210 30.729
265.610 4.020 31.494
265.660 4.200 8.522
265.670 3.950 19.319
265.680 4.400 44.934
265.690 4.470 31.317
265.700 4.430 19.899
265.710 4.480 33.968
265.720 4.820 15.926
265.750 4.400 30.415
265.780 4.250 38.301
265.790 4.260 4.953
265.800 4.270 38.368
265.810 4.340 31.748
265.840 4.280 39.373
265.860 3.910 31.175
265.890 3.890 27.940
265.900 4.700 42.986
265.920 4.360 1.610
265.930 4.310 44.459
266.060 4.750 10.595
266.080 4.310 41.320
266.120 4.260 31.358
266.130 4.120 32.003
266.140 3.990 37.684
266.150 3.760 20.370
266.160 4.880 40.398
266.170 4.260 38.175
266.180 4.730 27.496
266.190 4.760 28.826
266.200 4.470 41.302
266.240 4.540 14.558
266.260 4.760 37.859
266.310 3.970 27.294
266.360 4.430 31.289
266.370 3.770 37.391
266.390 3.850 38.971
266.470 4.130 41.384
266.480 4.610 43.905
266.490 4.400 30.803
266.500 4.110 44.665
266.510 4.300 41.643
266.520 4.540 37.780
266.540 4.280 31.545
266.550 4.660 34.320
266.560 4.030 37.262
266.600 4.450 34.475
266.620 4.120 24.074
266.630 4.430 23.133
266.660 4.320 38.622
266.680 4.510 11.106
266.780 4.440 43.162
266.800 4.170 37.513
266.810 3.970 40.195
266.840 4.280 37.471
266.850 4.390 32.327
266.860 4.020 32.466
266.890 4.210 42.941
266.910 4.300 41.611
266.930 4.370 42.128
266.940 4.440 30.475
266.950 4.340 33.402
266.960 4.360 39.640
266.970 4.380 23.810
266.980 4.650 7.332
266.990 4.080 29.487
267.000 3.930 15.782
267.010 4.170 20.297
267.020 3.940 29.242
267.030 4.800 37.954
267.100 4.480 28.825
267.130 4.450 14.306
267.150 4.340 27.681
267.180 4.660 42.257
267.190 4.840 41.868
267.200 4.150 36.856
267.210 4.370 29.487
267.220 4.020 30.181
267.230 3.830 15.792
267.240 4.290 44.928
267.250 3.940 29.494
267.280 4.750 37.096
267.350 4.310 40.530
267.470 4.110 38.217
267.480 3.860 16.719
267.500 4.010 44.888
267.590 4.480 37.747
267.600 4.070 26.237
267.620 4.120 34.298
267.650 4.590 40.793
267.720 4.320 27.373
267.730 4.860 23.881
267.900 4.950 43.911
276.950 4.510 42.595
283.540 4.270 25.529
283.560 4.090 26.846
283.570 3.730 8.247
283.580 4.210 37.116
283.590 4.190 29.183
283.600 4.380 40.188
283.610 4.760 25.355
283.630 3.960 42.154
283.640 4.470 37.793
283.650 4.060 40.366
283.660 4.680 41.388
283.670 4.780 25.728
283.690 4.180 37.509
283.700 4.030 40.668
283.720 4.550 43.495
283.740 3.940 28.771
283.750 4.330 29.612
283.760 4.170 26.060
283.770 3.680 27.744
283.780 4.010 32.759
283.800 4.240 42.533
283.820 4.710 29.177
284.920 4.850 18.080
284.930 3.910 13.244
284.940 3.620 22.421
284.950 4.260 33.927
284.960 3.810 10.428
284.970 4.320 9.977
284.990 4.120 32.820
285.000 4.120 31.380
285.010 3.960 26.846
285.020 4.090 35.635
285.030 3.930 23.681
285.040 4.310 40.619
285.050 4.230 23.391
285.060 3.810 16.923
285.070 4.450 16.860
285.080 4.950 26.321
285.090 3.610 12.067
285.100 4.080 39.789
285.210 4.630 38.561
285.250 4.820 29.797
287.120 4.720 38.085
287.140 4.950 18.116
287.330 4.840 20.411
296.180 4.590 10.431
296.220 4.140 25.901
296.230 4.570 20.471
296.240 4.350 17.580
296.270 4.780 26.620
296.310 4.490 30.861
296.320 3.930 2.059
296.340 4.570 31.173
296.380 4.690 21.133
296.390 4.520 42.302
296.400 4.970 12.242
296.410 3.840 12.448
296.550 4.570 41.492
296.580 4.760 38.575
296.590 4.330 31.063
296.610 4.690 38.965
296.620 4.780 2.784
296.690 4.140 26.372
296.720 4.300 4.944
296.730 4.490 22.371
296.740 4.300 21.316
296.750 4.070 28.013
296.760 3.920 16.223
296.770 4.330 10.268
296.780 4.350 23.298
296.800 4.410 29.699
296.810 4.420 29.950
296.830 4.610 18.811
296.850 4.670 2.351
296.860 4.880 40.114
296.870 4.380 42.958
296.910 4.620 37.059
