# time(ns) distance (A) angle (deg)
4.580 3.460 80.089
4.790 3.480 79.099
4.800 3.550 84.306
4.810 3.400 87.853
4.870 3.570 85.594
4.940 3.340 88.889
5.730 3.360 84.990
7.710 3.440 83.601
8.620 3.470 84.598
9.030 3.480 84.600
9.340 5.870 76.324
9.360 5.650 83.298
9.630 5.260 73.506
9.670 5.990 84.158
9.690 5.390 89.521
9.700 4.820 83.525
9.930 5.890 80.047
10.250 5.670 89.890
10.410 4.370 89.989
10.450 5.120 49.568
10.460 5.010 53.964
10.470 5.720 47.538
11.050 5.970 76.695
11.100 4.220 81.359
11.120 5.290 76.917
11.170 5.730 76.572
11.270 5.290 55.361
11.280 6.000 81.974
11.290 4.560 57.497
11.300 5.370 57.581
11.310 5.770 52.262
11.330 5.890 88.572
11.410 5.900 74.444
11.450 5.870 54.856
11.610 5.440 85.649
11.620 5.000 87.678
11.630 4.810 78.957
11.680 5.330 83.016
11.720 5.750 56.421
11.790 5.750 72.580
11.890 5.760 70.817
11.910 4.840 80.180
11.930 5.220 89.507
11.940 5.860 76.782
11.960 4.910 88.720
18.580 5.400 81.906
18.700 5.010 75.586
18.710 4.520 84.196
18.750 5.230 84.699
18.760 4.880 78.914
18.890 3.830 68.290
19.010 4.220 37.437
19.020 4.280 76.025
19.050 4.380 85.401
19.070 4.500 78.536
19.140 4.870 81.896
19.170 5.160 76.740
19.220 5.130 63.669
19.260 4.390 40.301
19.580 4.420 47.394
19.600 5.210 75.316
19.620 5.420 84.934
19.630 4.710 69.496
19.700 4.950 84.007
19.820 5.480 83.643
20.000 4.920 88.020
20.010 4.960 83.868
20.020 5.710 75.195
20.040 4.500 87.528
20.050 5.250 79.015
20.190 5.360 45.343
20.220 4.000 82.486
20.230 4.180 40.775
20.240 4.300 53.213
20.250 3.960 27.483
20.260 3.900 32.534
20.270 4.560 55.619
20.280 3.660 14.337
20.290 3.780 11.827
20.300 4.030 27.415
20.310 3.550 20.173
20.320 3.640 23.872
20.330 4.320 20.285
20.340 3.800 14.810
20.350 3.760 20.029
20.360 3.730 34.863
20.370 3.810 14.386
20.380 3.820 14.431
20.390 3.860 12.588
20.400 4.630 33.975
20.410 3.860 26.385
20.420 3.870 33.168
20.430 4.010 86.145
20.440 3.830 38.560
20.450 4.170 45.587
20.460 3.910 8.552
20.470 3.910 19.419
20.480 4.160 33.421
20.490 4.100 34.562
20.500 4.440 45.633
20.510 4.930 84.641
20.520 5.130 52.799
20.530 5.460 89.069
20.540 4.050 51.875
20.550 4.030 75.203
20.580 5.290 66.575
20.610 5.020 84.199
20.620 4.890 84.544
20.630 3.960 76.098
20.640 4.650 67.831
20.650 4.410 62.495
20.660 5.060 61.609
20.670 4.840 81.186
20.680 4.880 87.591
20.750 3.680 81.713
20.760 3.950 87.631
20.810 4.250 82.365
20.820 4.850 70.935
20.830 4.650 58.575
20.840 4.790 73.435
20.850 5.090 78.610
20.860 5.030 89.118
20.880 4.320 79.151
20.900 4.190 83.670
20.920 5.030 88.124
20.970 4.180 87.383
20.990 4.870 83.348
21.010 3.880 69.514
21.030 4.910 41.457
21.040 5.260 55.960
21.050 5.470 76.777
21.060 5.230 82.879
21.070 4.860 63.276
21.080 5.370 88.151
21.090 4.440 74.887
21.130 4.390 89.330
21.200 4.460 84.049
58.730 5.640 78.498
58.740 5.620 86.574
58.760 5.630 81.955
58.770 5.240 83.721
58.780 5.530 85.376
58.790 4.890 72.512
58.800 5.680 63.877
58.810 5.350 72.813
58.820 5.360 79.277
58.830 5.390 81.385
58.840 5.490 53.328
58.850 5.780 85.377
58.860 5.470 64.336
58.870 5.760 69.292
58.880 4.600 81.977
58.890 5.250 75.125
58.900 5.430 78.028
58.910 5.460 66.176
58.930 5.450 71.622
58.940 5.390 72.659
58.950 5.410 76.423
58.970 5.590 69.676
58.980 5.570 84.057
58.990 5.660 70.840
59.010 5.320 83.946
59.040 5.590 83.564
59.050 5.410 87.707
59.070 5.320 89.255
59.090 4.720 88.503
59.100 5.150 78.600
59.110 5.340 84.143
59.140 5.060 86.995
59.180 4.510 84.341
59.200 4.230 80.531
59.380 4.860 74.678
59.440 5.290 81.040
59.480 5.420 67.568
59.500 5.110 77.245
59.510 5.260 73.910
59.520 5.430 89.231
59.530 5.020 79.555
59.540 4.560 80.375
59.560 4.740 77.511
59.570 5.290 56.399
59.580 5.420 88.693
59.600 5.120 72.413
59.650 5.400 87.391
59.740 5.260 61.327
59.760 5.240 65.706
59.770 4.910 86.550
59.780 4.900 83.027
59.820 4.790 87.697
59.830 4.560 89.032
59.890 5.340 82.745
59.900 4.490 86.978
59.910 5.160 80.784
59.920 4.670 75.590
59.930 4.780 79.750
59.940 4.740 67.424
59.950 4.610 84.552
60.070 4.160 89.558
60.080 4.420 79.562
60.160 3.960 84.239
60.180 4.330 80.272
60.210 4.400 79.006
60.230 5.030 79.884
60.280 4.680 86.084
60.320 5.620 82.343
60.390 5.350 81.279
60.420 5.820 74.820
60.580 5.790 82.736
60.600 5.470 85.846
60.610 4.640 63.613
60.640 5.230 82.059
60.650 5.480 82.203
60.660 4.680 70.785
60.670 5.670 72.410
60.680 5.700 62.183
60.690 5.170 81.129
60.700 4.440 77.330
60.710 5.320 69.592
60.720 5.180 77.138
60.730 5.190 74.495
60.740 4.930 70.099
60.760 4.360 87.574
60.770 5.220 77.250
60.780 5.070 75.295
60.790 5.170 79.462
60.800 5.190 77.080
60.810 5.630 81.347
60.820 4.850 78.853
60.830 5.370 67.657
60.840 5.660 66.049
60.850 4.930 77.252
60.860 5.580 61.447
60.870 5.810 52.035
60.880 5.150 83.747
60.890 4.560 79.823
60.900 5.090 76.526
60.910 5.510 75.844
60.920 4.850 62.493
60.930 5.140 78.135
60.940 5.240 71.121
60.950 5.830 70.071
60.960 5.410 72.139
60.970 5.600 66.718
60.980 5.260 77.104
60.990 5.170 58.406
61.000 5.640 64.809
61.010 5.940 80.378
61.020 5.390 67.487
61.030 5.170 82.502
61.050 5.440 67.708
61.070 5.160 76.469
61.080 5.450 76.053
61.090 5.440 86.555
61.100 4.950 78.403
61.110 5.600 79.788
61.120 5.280 71.892
61.130 4.790 79.488
61.140 5.300 81.477
61.150 5.500 61.940
61.160 5.890 79.376
61.170 5.860 88.259
61.180 5.150 65.532
61.190 4.980 71.176
61.200 5.100 76.289
61.220 5.640 66.130
61.230 5.740 70.370
61.430 5.860 79.793
61.440 5.280 73.365
61.460 5.660 88.424
61.510 5.890 49.314
61.530 5.170 68.167
61.540 4.140 81.281
61.550 4.870 84.858
61.560 4.330 77.701
61.570 4.750 76.438
61.580 4.500 80.625
61.590 4.880 85.720
61.600 4.990 89.736
61.610 5.160 85.671
61.620 5.660 87.221
61.630 5.990 60.225
61.640 5.040 80.276
61.650 4.650 76.854
61.660 4.810 78.200
61.670 4.820 85.733
61.680 5.090 77.615
61.690 4.940 77.987
61.700 4.720 81.569
61.720 4.860 74.855
61.730 5.270 85.829
61.740 4.950 88.351
61.750 4.410 77.869
61.760 4.710 72.194
61.770 4.970 83.747
61.780 4.960 83.117
61.790 5.680 71.876
61.800 4.930 64.021
61.810 5.720 70.030
61.820 5.590 74.322
61.830 5.490 66.574
61.840 5.080 75.007
61.860 5.850 79.414
61.870 5.650 72.183
61.890 5.880 62.230
61.900 5.780 66.590
61.910 5.890 57.348
61.920 5.340 65.765
61.930 5.560 59.592
61.940 5.590 86.953
61.950 4.880 85.721
61.960 5.150 64.241
61.980 5.700 60.143
61.990 5.920 76.682
62.000 5.450 77.508
62.010 5.650 87.005
62.040 5.140 78.130
62.050 5.060 76.281
62.080 5.310 76.200
62.090 5.420 79.756
62.100 5.610 61.510
62.110 5.780 79.815
62.120 5.040 77.542
62.130 5.240 84.502
62.140 5.060 76.982
62.150 5.010 80.621
62.160 4.760 78.407
62.170 5.010 73.613
62.180 4.720 85.604
62.200 4.730 85.641
62.210 4.300 89.542
62.220 4.620 89.766
62.230 5.190 75.022
62.240 5.180 75.019
62.260 5.740 73.492
62.270 5.180 89.196
62.280 4.650 83.226
62.290 4.910 76.246
62.300 5.470 72.844
62.310 5.320 84.643
62.320 4.870 87.341
62.330 4.650 80.406
62.340 4.970 78.758
62.350 5.080 82.654
62.360 5.580 65.320
62.370 5.770 71.230
62.380 5.560 61.435
62.390 4.640 83.671
62.400 4.490 85.823
62.420 4.680 70.525
62.430 4.780 67.941
62.440 4.750 79.274
62.450 4.990 74.812
62.460 5.100 74.846
62.470 4.880 79.001
62.500 4.090 87.253
62.510 4.160 77.010
62.530 5.010 80.260
62.540 5.280 83.439
62.550 4.930 89.933
62.560 5.050 75.181
62.580 5.470 71.835
62.600 5.270 83.197
62.610 5.140 77.818
62.620 4.910 76.284
62.640 4.820 86.719
62.650 5.270 86.240
62.660 5.280 75.404
62.670 5.200 68.881
62.680 5.030 83.810
62.690 4.500 82.907
62.710 4.880 84.303
62.720 5.100 74.217
62.730 4.960 78.636
62.770 4.880 86.855
62.780 5.180 84.396
62.790 5.170 78.999
62.800 4.760 85.033
62.830 5.060 74.565
62.850 5.140 75.433
62.860 5.180 71.778
62.880 4.440 78.704
62.890 4.640 88.734
62.910 4.280 89.864
62.920 5.380 87.031
62.940 5.600 76.757
62.950 5.450 80.977
62.960 5.140 81.201
62.970 4.470 80.462
62.980 4.920 84.170
62.990 5.820 64.491
63.000 5.200 88.231
63.010 5.220 75.558
63.020 5.660 51.775
63.030 5.680 75.388
63.040 5.720 70.813
63.050 5.570 87.576
63.180 5.610 87.575
63.190 5.030 80.893
63.200 5.220 88.115
63.240 5.420 78.317
63.250 5.820 83.713
63.270 5.640 81.504
63.280 5.320 78.317
63.300 5.560 89.665
63.310 5.730 81.067
63.320 5.280 78.045
63.330 5.680 83.702
63.340 5.340 82.723
63.450 5.290 87.999
63.520 5.410 89.548
63.530 4.910 79.654
63.540 4.260 82.312
63.550 4.790 88.470
63.570 4.430 84.817
63.580 4.550 82.504
63.590 4.250 82.352
63.600 4.190 88.629
63.610 4.070 89.615
63.620 4.460 79.143
63.640 4.910 83.341
63.660 5.360 86.222
63.670 5.180 59.900
63.680 5.360 81.652
63.690 4.760 85.118
63.710 5.830 88.298
63.720 5.510 89.275
63.730 5.190 88.531
63.740 5.980 79.397
63.750 4.220 72.938
63.770 5.300 76.245
63.790 5.100 84.577
63.800 5.430 80.608
63.810 5.670 75.854
63.820 5.560 87.806
63.830 5.530 84.639
63.850 5.310 74.489
63.890 4.880 83.457
63.910 5.060 79.414
63.920 4.510 80.412
63.940 5.540 59.361
63.950 5.510 72.184
63.960 5.510 75.126
64.000 5.000 88.120
64.010 5.700 72.736
64.050 4.900 78.580
64.080 4.580 83.283
64.090 4.660 85.083
64.100 4.840 78.802
64.110 4.860 89.665
64.120 4.750 89.413
64.140 4.570 72.186
64.150 4.930 83.261
64.160 4.880 85.789
64.170 4.970 86.567
64.180 4.430 78.995
64.190 4.670 73.872
64.200 4.830 72.974
64.220 5.190 73.497
64.230 4.810 73.828
64.240 4.320 81.003
64.250 4.500 87.773
64.260 4.560 87.381
64.270 4.590 81.978
64.280 4.040 85.661
64.300 4.600 82.167
64.310 4.320 68.675
64.330 5.770 64.143
64.340 4.720 75.296
64.380 4.340 85.639
64.390 4.350 85.617
64.400 4.600 74.049
64.410 4.720 74.567
64.430 3.990 86.835
64.460 4.660 72.895
64.470 4.610 83.807
64.480 4.320 83.520
64.490 4.800 86.389
64.500 4.460 89.994
64.550 4.550 89.381
64.580 4.970 76.308
64.600 5.280 80.532
64.660 4.810 85.519
64.670 5.140 74.420
64.690 4.840 86.586
64.730 4.380 84.879
64.760 5.170 88.117
64.780 4.670 75.647
64.830 5.320 75.189
64.840 5.350 86.450
64.850 5.530 83.170
64.860 5.920 88.632
64.870 5.670 78.031
64.880 5.310 79.565
64.890 5.440 75.125
64.900 4.920 86.074
64.910 5.380 82.041
64.920 4.740 85.126
64.940 4.180 88.713
64.950 4.470 83.777
64.970 4.510 83.274
64.980 4.180 89.826
65.000 4.920 84.554
65.010 4.940 77.651
65.020 5.350 75.499
65.030 5.230 71.417
65.040 5.230 81.706
65.050 4.890 67.300
65.080 4.790 84.279
65.090 4.680 85.834
65.110 5.460 75.098
65.150 5.530 86.995
65.230 4.920 88.286
65.240 4.370 86.470
65.260 5.790 89.759
65.270 5.750 89.165
65.280 5.760 71.068
65.290 5.450 57.745
65.300 5.480 87.936
65.310 5.890 58.707
65.330 5.010 83.858
65.340 5.290 71.033
65.350 5.350 57.386
65.360 5.610 76.676
65.370 4.780 83.745
65.390 4.650 82.010
65.400 4.890 71.482
65.410 4.590 81.620
65.420 5.440 76.110
65.430 5.180 67.178
65.440 4.580 84.996
65.450 5.410 63.154
65.460 5.320 60.680
65.470 5.380 71.317
65.480 5.820 68.504
65.490 5.210 78.533
65.500 5.260 86.347
65.510 5.440 85.319
65.520 5.170 72.702
65.530 5.460 85.489
65.580 5.940 66.432
65.590 5.300 80.831
65.600 4.940 80.941
65.630 5.120 64.846
65.640 5.460 73.971
65.650 5.250 87.199
65.800 4.760 78.051
65.830 5.780 82.543
65.840 5.400 52.772
65.860 5.610 84.477
65.870 5.500 75.158
65.880 4.720 88.309
65.890 4.560 77.620
65.910 5.270 80.031
65.920 4.730 81.617
65.990 5.690 70.268
66.000 5.910 75.771
66.010 5.220 74.010
66.040 5.150 65.772
66.050 4.880 83.357
66.320 4.770 75.879
66.330 5.170 89.017
66.350 4.570 85.756
66.450 4.980 79.826
66.600 5.380 79.500
66.610 5.440 86.436
66.620 5.430 81.389
66.950 5.970 69.622
66.980 5.930 75.271
67.050 5.850 84.593
67.060 5.880 88.582
67.090 5.340 83.360
67.100 5.690 77.332
67.120 5.310 82.903
67.180 5.060 89.876
67.190 4.300 88.297
67.280 4.760 83.532
67.330 5.330 76.978
67.400 5.960 82.109
67.430 5.810 78.121
67.500 5.990 86.968
67.660 5.190 83.872
67.670 5.900 81.841
67.700 5.430 78.015
67.740 5.530 88.768
67.760 5.020 66.434
67.770 4.720 82.421
67.790 5.160 80.347
67.800 5.830 61.475
67.810 5.940 61.204
67.820 5.540 79.381
67.830 5.510 82.353
67.840 5.430 76.853
67.860 5.040 86.559
67.870 4.740 71.855
67.880 5.280 81.304
67.890 5.340 81.394
67.900 5.450 74.823
67.920 5.860 63.034
67.930 4.480 73.761
67.940 5.010 83.772
67.950 5.730 61.314
67.960 4.640 85.377
67.970 4.800 68.312
67.980 4.870 77.515
67.990 5.370 67.477
68.000 5.450 71.988
68.010 5.410 64.222
68.020 4.990 82.162
68.030 5.070 60.587
68.040 5.540 72.859
68.050 5.170 74.219
68.060 5.810 75.046
68.070 5.670 69.257
68.160 5.520 86.070
68.170 5.350 81.224
68.240 5.600 85.186
68.260 5.360 51.480
68.270 5.320 75.826
68.310 4.620 78.212
68.320 5.100 67.856
68.330 5.470 62.890
68.340 4.960 84.935
68.350 4.830 89.752
68.360 5.380 66.852
68.370 4.660 74.781
68.380 4.940 88.077
68.390 5.170 79.516
68.400 5.220 61.360
68.410 5.950 55.847
68.420 4.940 73.540
68.430 4.750 73.317
68.440 5.810 64.892
68.450 5.690 66.989
68.460 5.180 72.420
68.470 5.030 70.526
68.480 4.860 76.395
68.490 5.020 85.971
68.510 5.080 66.482
68.520 4.980 82.212
68.530 5.720 75.375
68.540 5.360 82.514
68.550 5.690 67.340
68.570 5.630 69.553
68.580 5.610 81.043
68.590 5.680 79.343
68.600 5.740 73.676
68.610 5.340 72.472
68.620 5.160 62.949
68.630 5.310 71.927
68.640 5.170 65.994
68.650 5.200 86.959
68.670 5.480 76.191
68.690 5.080 68.926
68.700 4.640 77.544
68.710 5.450 77.913
68.720 5.880 87.079
68.730 5.630 84.292
68.740 5.730 80.634
74.850 5.210 86.056
74.860 5.170 74.764
74.870 4.750 79.841
74.880 5.270 66.634
74.890 5.000 80.890
74.900 4.860 66.391
74.910 5.080 70.795
74.930 4.380 80.294
74.960 4.780 76.509
74.970 4.560 75.220
74.980 4.610 80.752
74.990 5.640 70.878
75.000 4.970 72.801
75.010 5.030 74.178
75.020 5.250 72.634
75.030 4.770 89.598
75.040 4.670 74.602
75.050 4.290 87.801
75.060 4.600 87.486
75.070 4.360 87.533
75.090 4.180 81.152
75.100 4.430 76.575
75.110 4.610 70.625
75.120 5.150 58.318
75.130 5.270 69.165
75.140 4.740 70.603
75.150 4.720 89.680
75.160 4.720 80.302
75.170 4.360 80.395
75.180 4.590 79.233
75.190 5.360 58.436
75.200 5.170 69.447
75.210 5.670 65.472
75.220 4.260 86.136
75.230 4.080 86.551
75.240 4.200 87.426
75.250 4.770 84.824
75.260 4.330 80.626
75.270 4.500 72.715
75.280 4.280 87.655
75.290 4.640 82.238
75.300 5.170 64.132
75.310 5.000 77.184
75.320 4.600 83.017
75.330 4.440 76.851
75.340 4.920 83.544
75.350 4.520 81.704
75.360 5.090 66.149
75.380 4.220 80.678
75.390 4.890 70.824
75.400 4.530 74.699
75.410 4.430 79.166
75.420 4.360 75.376
75.440 4.180 86.916
75.460 4.440 80.045
75.470 4.070 85.917
75.480 5.440 72.064
75.490 5.380 77.915
75.500 5.010 76.169
75.510 5.540 73.978
75.520 4.610 86.177
75.530 5.310 74.111
75.540 4.830 82.556
75.550 5.160 77.955
75.560 4.850 74.350
75.570 4.620 84.194
75.580 4.570 80.266
75.590 5.060 76.589
75.600 4.650 83.586
75.610 4.420 74.537
75.620 5.050 69.661
75.630 4.600 84.197
75.640 5.040 70.466
75.650 4.310 81.415
75.660 4.810 82.598
75.670 4.670 73.102
75.690 5.300 86.283
75.700 5.100 77.814
75.720 4.620 89.681
75.730 4.790 80.550
75.740 5.520 78.643
75.750 5.150 88.011
75.760 5.130 84.250
75.770 4.460 85.731
75.780 4.900 88.929
75.790 5.070 85.414
75.800 5.090 64.560
75.810 4.680 71.588
75.830 5.030 72.874
75.840 4.550 81.810
75.860 4.700 82.603
75.880 4.640 82.154
75.890 4.900 88.294
75.900 4.660 71.267
75.910 4.530 77.715
75.920 4.440 78.933
75.940 5.200 76.181
75.950 4.380 84.701
75.960 4.660 80.023
75.970 4.480 76.393
75.990 4.310 88.630
76.000 4.820 69.984
76.010 5.010 84.088
76.020 4.760 83.763
76.030 4.260 77.288
76.040 4.690 86.605
76.050 4.490 76.259
76.060 4.600 83.314
76.080 5.210 87.766
76.090 4.810 69.934
76.100 4.440 88.509
76.120 4.530 68.159
76.130 4.500 71.751
76.140 4.600 86.123
76.150 4.140 87.625
76.160 5.330 66.051
76.170 4.530 82.323
76.180 4.700 68.905
76.190 4.720 80.651
76.210 4.670 75.845
76.220 4.920 87.138
76.230 4.830 72.835
76.240 4.390 80.574
76.250 4.080 84.944
76.260 4.350 73.459
76.270 4.690 78.919
76.290 4.700 82.354
76.300 4.670 82.234
76.310 4.660 77.995
76.320 5.100 89.884
76.330 4.420 77.494
76.340 4.420 78.663
76.350 4.360 80.204
76.360 4.800 81.540
76.370 4.520 73.436
76.380 4.510 86.310
76.390 4.470 84.924
76.400 4.250 83.702
76.410 4.780 86.560
76.420 5.020 65.784
76.430 4.160 82.400
76.440 4.240 88.119
76.450 5.550 71.390
76.460 5.150 79.357
76.470 4.670 81.954
76.480 4.520 85.837
76.490 5.030 74.485
76.500 5.250 65.349
76.510 4.580 83.670
76.520 4.740 79.148
76.530 4.930 83.489
76.550 5.280 60.953
76.560 4.670 75.649
76.570 5.750 69.089
76.580 5.240 75.908
76.590 5.150 68.916
76.600 4.940 80.012
76.610 5.640 66.601
76.620 4.990 78.656
76.630 4.750 66.751
76.640 5.040 89.363
76.650 5.210 60.353
76.660 5.340 72.704
76.670 5.640 78.231
76.690 4.450 74.244
76.700 5.630 61.639
76.710 5.650 65.950
76.720 4.970 70.213
76.740 4.650 88.683
76.750 5.660 86.759
76.760 5.460 57.892
76.770 5.140 68.604
76.780 4.930 84.243
76.790 5.190 80.022
76.800 4.560 83.124
76.820 5.140 83.630
76.830 5.260 74.359
76.870 5.080 83.890
76.880 4.780 76.304
76.900 5.180 88.191
76.910 5.270 85.033
76.920 4.860 77.598
76.930 5.410 59.086
76.950 5.140 85.443
76.960 4.960 82.585
76.970 4.600 88.080
76.980 5.790 79.651
76.990 5.000 72.565
77.000 5.230 78.005
77.010 5.000 77.959
77.020 4.550 77.888
77.050 4.950 80.489
77.060 5.140 83.151
77.070 4.860 81.330
77.080 4.460 86.238
77.130 4.790 85.459
77.140 4.450 89.532
77.160 4.610 88.320
77.170 5.360 72.528
77.180 5.150 88.627
77.190 4.380 68.678
77.200 4.710 78.867
77.220 4.500 72.845
77.230 4.660 83.126
77.240 4.070 80.406
77.250 5.110 87.236
77.260 4.710 83.122
77.280 4.750 86.609
77.290 4.450 82.515
77.300 4.150 87.705
77.310 4.670 85.305
77.320 4.340 81.007
77.330 3.810 89.208
77.340 4.300 85.950
77.350 4.620 79.571
77.380 4.960 74.266
77.390 5.690 68.722
77.400 5.120 86.949
77.410 5.400 89.120
77.440 4.340 84.490
77.450 4.960 87.958
77.460 4.370 86.900
77.470 4.290 84.826
77.480 4.880 65.642
77.500 5.260 75.896
77.510 5.210 67.094
77.520 5.320 82.650
77.530 5.430 81.366
77.540 5.030 77.487
77.550 5.470 80.081
77.560 5.760 63.631
77.570 5.010 71.695
77.580 4.850 74.790
77.590 5.100 81.382
77.600 5.690 66.816
77.610 4.750 71.948
77.620 5.280 69.439
77.630 4.830 80.553
77.640 5.150 62.171
77.650 5.600 70.715
77.660 5.060 69.416
77.680 5.170 82.473
77.690 4.780 78.544
77.700 5.400 65.010
77.710 4.880 70.155
77.720 5.580 70.468
77.730 5.140 74.582
77.740 5.400 69.135
77.750 5.320 78.193
77.760 4.960 77.434
77.770 5.080 67.963
77.780 5.590 59.836
77.790 5.640 76.034
77.800 4.910 64.369
77.810 5.530 66.728
77.820 4.670 74.736
77.830 4.820 85.028
77.860 5.940 55.233
77.880 5.700 59.352
77.890 5.530 69.179
77.900 5.650 66.786
77.910 4.840 70.295
77.920 5.140 74.818
77.930 4.910 74.165
77.940 4.790 87.279
77.950 4.960 75.304
77.970 4.790 71.031
77.980 4.520 79.712
77.990 5.060 72.854
78.000 5.100 71.663
78.010 5.100 78.237
78.020 5.930 67.234
78.030 5.160 72.463
78.040 5.730 72.148
78.050 5.550 77.632
78.070 5.350 68.748
78.080 5.230 66.915
78.090 5.760 59.665
78.100 4.950 69.887
78.120 5.370 66.063
78.130 5.340 73.923
78.140 5.190 71.980
78.150 4.830 68.346
78.160 4.700 83.700
78.170 5.500 70.507
78.180 4.850 67.876
78.190 5.290 64.967
78.200 4.280 80.726
78.210 4.340 81.767
78.220 4.970 67.520
78.230 5.500 67.444
78.240 5.180 70.885
78.250 4.770 70.935
78.260 4.940 78.423
78.270 5.430 64.677
78.280 5.260 73.261
78.290 5.450 76.875
78.300 4.190 80.082
78.310 4.820 69.506
78.320 5.030 70.225
78.330 4.990 75.956
78.340 5.090 75.304
78.350 4.910 60.886
78.360 4.700 71.593
78.370 5.000 64.961
78.400 4.350 88.774
78.410 4.620 79.484
78.420 4.350 79.746
78.430 4.510 84.313
78.440 4.910 80.075
78.450 5.380 65.646
78.460 4.810 79.857
78.470 5.660 47.642
78.480 4.440 77.333
78.490 4.920 75.511
78.500 4.340 80.858
78.510 4.350 76.493
78.520 4.200 78.459
78.530 5.000 75.993
78.540 4.400 81.909
78.550 4.850 70.211
78.560 4.620 73.790
78.570 4.150 85.882
78.590 4.110 71.733
78.600 4.310 78.281
78.610 4.480 83.619
78.620 4.590 77.405
78.630 4.980 72.634
78.640 4.780 74.608
78.650 4.900 73.503
78.660 4.860 70.113
78.670 4.900 72.801
78.680 4.370 75.367
78.690 4.380 87.154
78.700 4.980 70.278
78.710 3.880 87.249
78.720 4.350 82.275
78.730 3.890 85.090
78.740 5.320 72.815
78.750 5.250 77.160
78.760 4.480 75.093
78.770 4.540 77.258
78.780 4.720 83.130
78.790 4.830 74.063
78.800 4.600 76.256
78.810 5.710 68.615
78.820 4.590 77.016
78.830 5.290 76.730
78.840 5.340 78.267
78.860 5.560 72.988
78.870 5.770 76.954
78.880 5.600 70.333
78.890 5.940 64.735
78.900 5.900 56.386
78.910 5.620 72.781
78.920 5.650 72.298
78.940 5.800 60.351
78.960 4.780 75.100
78.970 5.250 74.287
78.980 4.930 79.267
78.990 5.050 70.128
79.000 5.400 70.215
79.010 5.050 61.681
79.020 4.930 82.058
79.040 5.550 67.659
79.050 4.470 85.988
79.060 4.620 87.493
79.070 4.770 77.173
79.080 4.420 70.320
79.100 4.040 85.722
79.110 4.360 87.771
79.120 4.520 79.102
79.130 5.790 51.186
79.140 4.970 73.932
79.150 4.900 71.490
79.160 4.350 75.474
79.170 4.490 88.226
79.180 4.230 85.321
79.190 4.740 80.224
79.200 4.790 76.329
79.210 4.860 76.693
79.220 4.320 81.871
79.230 4.130 84.661
79.240 4.960 71.725
79.250 4.370 81.050
79.260 4.570 76.787
79.270 4.910 76.108
79.280 4.520 80.344
79.300 4.050 88.152
79.310 4.950 70.315
79.320 4.730 74.105
79.330 4.420 79.760
79.340 4.030 84.273
79.350 5.200 78.798
79.360 4.920 89.466
79.370 5.140 62.107
79.380 5.440 75.030
79.390 4.770 85.038
79.400 4.770 83.188
79.410 5.480 67.056
79.420 5.090 77.344
79.430 5.080 71.945
79.440 4.690 76.091
79.450 5.530 62.426
79.460 5.600 65.249
79.470 4.980 62.828
79.480 5.250 65.894
79.490 5.360 68.522
79.500 5.940 75.288
79.510 5.260 71.333
79.520 5.440 75.200
79.530 5.520 76.870
79.540 4.800 69.544
79.550 5.130 81.026
79.560 5.120 77.622
79.580 4.350 80.976
79.590 4.960 62.133
79.600 5.630 54.693
79.610 5.760 58.627
79.630 5.350 78.561
79.650 5.560 54.744
79.660 5.350 57.706
79.670 5.260 72.719
79.680 4.970 69.298
79.690 5.300 67.093
79.710 4.610 88.775
79.720 5.130 71.708
79.740 4.740 75.204
79.760 4.430 83.707
79.770 5.000 69.272
79.780 4.250 80.646
79.790 5.670 56.303
79.800 4.770 78.171
79.820 4.570 70.834
79.830 4.760 69.506
79.850 4.500 86.180
79.860 4.590 75.444
79.870 4.290 88.984
79.880 4.610 80.098
79.890 4.700 73.000
79.900 4.570 79.187
79.910 4.880 77.616
79.920 4.500 78.204
79.930 4.980 63.497
79.980 5.010 69.574
79.990 5.330 64.922
80.000 4.710 76.721
80.010 4.880 60.439
80.020 4.320 76.386
80.030 5.090 70.759
80.040 4.770 69.290
80.050 4.080 81.490
80.060 4.390 73.169
80.070 4.710 80.146
80.090 5.000 73.472
80.100 4.980 74.975
80.110 5.610 52.790
80.130 5.590 76.753
80.140 4.560 75.514
80.160 4.960 76.124
80.180 5.530 72.208
80.190 5.230 69.135
80.200 5.080 77.152
80.210 5.190 68.065
80.220 4.660 83.958
80.230 5.390 61.517
80.250 5.170 68.758
80.260 5.810 83.665
80.270 4.950 72.844
80.280 5.930 69.798
80.290 5.400 80.966
80.310 5.670 73.537
80.320 4.820 77.092
80.330 5.330 71.919
80.340 5.020 64.552
80.350 4.350 84.422
80.360 5.210 66.057
80.370 5.410 73.196
80.380 4.490 87.591
80.390 4.720 78.453
80.400 5.690 62.957
80.410 5.930 57.570
80.420 5.230 74.721
80.430 5.140 75.953
80.440 4.590 81.951
80.450 4.020 86.350
80.460 4.600 83.412
80.470 4.420 77.318
80.480 4.930 78.582
80.490 4.910 86.093
80.510 4.380 76.293
80.520 5.150 69.856
80.530 4.850 70.554
80.540 5.260 75.293
80.550 4.650 76.479
80.560 4.170 75.555
80.570 4.510 70.604
80.580 4.430 82.502
80.590 4.770 70.991
80.600 4.780 73.458
80.620 5.020 85.821
80.630 4.940 79.271
80.640 5.780 74.114
80.660 4.750 80.418
80.670 5.410 76.174
80.690 5.690 67.223
80.700 5.430 72.095
80.710 5.200 67.527
80.720 5.020 65.517
80.730 5.350 70.157
80.740 5.260 66.374
80.750 4.810 80.353
80.760 5.650 61.450
80.770 4.990 67.265
80.780 5.290 54.699
80.790 5.810 60.651
80.810 5.280 83.372
80.820 4.840 88.998
80.830 4.980 71.460
80.840 4.850 73.946
80.850 5.330 74.123
80.860 5.350 70.212
80.870 4.970 71.527
80.880 5.880 56.477
80.890 5.650 58.930
80.910 5.220 69.156
80.920 5.350 65.722
80.930 5.400 63.209
80.940 5.220 80.629
80.950 4.770 76.746
80.960 4.550 70.891
80.970 4.880 71.267
80.980 4.970 80.549
80.990 4.670 74.638
81.000 4.370 75.152
81.010 4.290 73.571
81.020 4.490 79.249
81.030 5.680 78.970
81.040 4.690 76.982
81.050 4.890 76.141
81.060 4.800 79.042
81.070 5.010 77.959
81.100 5.640 74.473
81.110 5.530 69.343
81.120 5.900 68.023
81.130 5.400 66.203
81.140 5.000 65.753
81.150 4.700 80.382
81.160 5.080 75.512
81.170 5.220 57.953
81.190 5.230 72.053
81.210 4.530 84.701
81.220 4.440 82.889
81.250 4.910 74.474
81.260 5.350 71.681
81.270 4.870 71.153
81.290 4.750 83.132
81.300 4.090 86.741
81.320 5.110 79.409
81.340 4.630 80.205
81.350 4.420 76.450
81.360 4.860 65.178
81.370 5.310 76.709
81.380 5.610 70.594
81.410 5.140 88.348
81.420 4.890 77.375
81.430 5.520 89.871
81.440 4.810 86.062
81.450 5.280 86.151
81.460 4.910 85.689
81.470 5.180 83.846
81.480 5.090 74.875
81.490 5.200 80.689
81.500 4.970 76.420
81.510 5.520 72.452
81.520 5.090 69.377
81.530 4.910 82.477
81.550 4.570 84.786
81.560 5.160 66.257
81.570 4.950 67.545
81.580 5.160 70.310
81.590 5.150 75.868
81.610 5.510 73.001
81.620 5.900 66.078
81.630 5.490 78.314
81.640 5.350 74.899
81.650 5.730 62.362
81.660 5.340 63.174
81.670 4.660 80.079
81.680 5.150 82.401
81.690 5.190 70.153
81.700 5.430 87.124
81.710 5.000 77.213
81.720 5.830 66.712
81.740 5.460 68.348
81.750 5.280 84.462
81.760 4.350 87.226
81.770 4.720 76.895
81.780 4.960 86.617
81.790 4.810 80.433
81.820 4.360 83.421
81.840 5.110 75.379
81.850 4.400 69.745
81.860 4.270 82.483
81.870 4.220 84.598
81.880 4.350 84.970
81.890 4.190 86.222
81.900 3.970 84.995
81.910 4.650 70.544
81.930 4.640 77.542
81.940 5.260 81.276
81.970 5.610 69.255
81.980 5.110 70.746
82.010 4.300 80.151
82.020 5.440 77.049
82.030 5.480 81.856
82.040 5.350 73.603
82.050 4.620 67.732
82.060 4.460 87.106
82.070 4.930 78.619
82.080 5.050 75.506
82.090 5.170 73.238
82.100 5.280 57.755
82.110 5.040 85.434
82.120 5.710 77.740
82.130 4.670 83.360
82.140 5.200 88.610
82.150 5.160 80.101
82.170 5.260 83.853
82.180 5.170 82.814
82.190 5.400 75.572
82.200 5.760 57.004
82.210 5.480 84.424
82.220 5.730 78.192
82.280 5.080 86.754
82.300 5.430 86.807
82.320 5.720 73.100
82.590 5.810 75.529
82.610 5.460 84.768
82.750 5.160 74.234
82.760 4.780 74.464
82.770 5.080 65.646
82.780 4.830 83.576
82.800 4.870 82.067
82.810 4.990 60.679
82.820 4.790 65.081
82.830 5.260 70.761
82.840 5.260 78.331
82.850 5.090 82.291
82.860 5.130 72.669
82.870 5.200 78.979
82.880 4.770 71.146
82.890 4.520 80.808
82.900 4.550 84.517
82.910 4.460 79.577
82.920 5.300 81.067
82.930 4.370 74.836
82.940 5.010 69.828
82.950 4.860 73.829
82.960 4.710 79.575
82.970 4.570 71.936
82.990 5.200 74.744
83.000 5.890 87.311
83.060 4.680 75.029
83.190 4.300 78.339
83.290 4.490 73.510
83.300 4.110 82.338
83.310 4.620 86.613
83.320 5.090 74.373
83.330 5.000 77.128
83.340 4.270 74.701
83.360 4.740 83.260
83.370 4.450 77.932
83.380 4.410 76.275
83.390 4.310 89.594
83.400 4.250 78.550
83.410 4.840 67.336
83.430 5.410 56.277
83.440 5.240 80.918
83.450 4.210 88.272
83.460 4.990 76.970
83.470 4.660 78.406
83.480 4.100 81.554
83.500 4.800 66.223
83.510 4.040 86.059
83.520 4.720 82.004
83.530 4.810 81.432
83.540 5.000 76.860
83.550 5.680 78.179
83.560 4.730 78.559
83.570 4.620 74.072
83.590 5.210 81.999
83.610 4.740 84.281
83.630 4.680 80.223
83.640 4.610 89.511
83.660 4.170 85.114
83.670 4.270 80.544
83.680 4.300 76.816
83.710 4.630 81.600
83.730 4.260 78.650
83.740 4.240 81.350
83.760 5.050 86.736
83.770 4.920 89.396
83.780 5.110 85.947
83.790 5.060 85.061
83.820 4.110 85.958
83.850 4.210 89.907
83.870 4.290 87.531
83.900 4.530 80.126
83.910 4.430 86.754
83.920 5.340 72.797
83.930 5.450 48.493
83.940 5.110 77.107
83.950 4.730 78.673
83.960 4.280 83.068
83.970 4.660 88.540
83.990 5.130 87.274
84.000 5.410 82.123
84.050 5.960 80.355
84.060 4.920 52.476
84.110 5.360 77.477
84.160 5.110 88.827
84.210 5.580 85.454
84.370 5.170 80.061
84.380 5.790 82.155
84.470 4.760 83.647
84.490 4.980 83.993
84.830 4.880 80.239
85.070 5.690 88.137
90.550 5.370 34.317
90.560 5.560 31.095
90.570 5.220 21.909
90.580 5.220 23.167
90.590 5.520 25.253
90.600 5.720 62.203
90.610 5.620 45.858
90.620 5.810 44.530
90.630 5.720 12.397
90.640 5.850 81.944
90.670 5.860 42.794
90.760 3.890 85.811
90.800 3.260 71.497
90.810 5.430 52.279
90.820 5.050 65.092
90.840 4.820 76.934
90.850 5.150 70.268
90.860 5.940 58.812
90.880 5.770 43.355
90.910 5.690 75.081
90.920 4.190 81.140
90.930 4.970 82.205
90.940 4.090 86.457
90.950 4.270 88.838
90.960 4.970 70.897
90.970 4.840 87.284
90.980 5.280 67.340
90.990 5.580 52.024
91.000 5.690 58.618
91.010 5.390 79.146
91.020 5.220 72.774
91.030 4.960 76.272
91.040 4.890 77.647
91.050 4.920 75.291
91.060 5.060 59.409
91.070 5.410 66.361
91.080 5.230 50.107
91.090 5.720 71.330
91.110 5.740 53.463
91.120 5.030 82.810
91.130 5.140 78.215
91.140 5.050 66.683
91.160 5.750 36.089
91.170 5.580 50.381
91.180 5.140 74.367
91.190 5.600 64.862
91.200 5.680 43.960
91.210 5.820 52.098
91.220 5.530 53.919
91.230 5.010 81.185
91.250 5.060 67.780
91.260 4.330 75.907
91.270 4.590 74.709
91.280 5.110 73.444
91.290 5.360 78.121
91.300 5.040 65.730
91.310 4.870 79.191
91.320 5.720 54.713
91.350 5.790 62.889
91.360 5.700 68.268
91.390 5.640 65.159
91.400 5.080 75.105
91.410 5.080 63.003
91.420 4.880 75.510
91.430 4.430 82.213
91.440 5.140 71.254
91.450 4.500 81.041
91.460 5.540 62.106
91.470 4.460 75.632
91.480 5.080 76.075
91.490 4.710 84.880
91.500 4.970 80.324
91.510 4.790 77.738
91.520 5.260 71.149
91.530 4.980 81.566
91.540 4.850 75.578
91.550 5.080 81.764
91.570 5.010 70.673
91.580 4.730 81.126
91.590 4.610 81.363
91.600 5.590 59.557
91.610 4.990 71.898
91.620 5.230 63.008
91.630 5.190 65.092
91.650 5.660 65.384
91.660 5.380 66.151
91.670 5.980 53.068
91.680 6.000 65.994
91.700 5.630 61.197
91.710 5.390 73.401
91.720 5.540 73.598
91.730 4.720 78.006
91.740 5.610 83.506
91.750 5.030 75.402
91.760 5.470 67.216
91.770 4.700 78.177
91.780 5.150 72.852
91.790 4.510 84.906
91.800 3.960 87.062
91.810 4.770 86.946
91.820 5.070 87.481
91.830 4.700 87.958
91.840 5.000 79.562
91.850 5.040 68.795
91.860 5.710 70.305
91.870 4.970 87.201
91.880 4.710 84.402
91.890 4.720 69.113
91.900 5.400 56.465
91.910 4.710 73.554
91.930 5.310 69.686
91.940 5.540 66.791
91.950 5.370 56.846
91.960 4.610 78.767
91.970 4.890 74.752
91.980 4.990 62.873
91.990 5.110 57.525
92.000 4.590 79.170
92.010 4.970 77.488
92.020 5.670 60.233
92.030 4.890 69.271
92.040 4.120 67.181
92.050 4.540 81.588
92.060 4.340 79.990
92.070 5.360 59.907
92.080 5.060 70.660
92.090 4.840 78.240
92.100 5.200 66.212
92.110 4.760 60.204
92.120 4.640 74.729
92.130 4.420 84.397
92.140 5.090 71.340
92.150 5.040 77.408
92.160 5.360 66.001
92.170 5.510 63.560
92.180 4.910 69.781
92.190 4.590 83.969
92.200 5.220 73.104
92.210 4.900 81.378
92.220 5.580 53.329
92.230 5.030 72.496
92.240 4.930 68.261
92.250 5.020 62.260
92.260 6.000 64.579
92.270 5.330 88.588
92.300 5.820 89.805
92.340 5.610 86.926
92.350 5.680 60.460
92.360 5.560 68.270
92.370 5.450 68.048
92.380 5.180 68.007
92.390 5.870 52.384
92.400 5.870 52.846
92.420 5.490 66.459
92.430 5.280 64.747
92.440 5.670 55.885
92.450 5.470 69.525
92.490 5.920 39.849
92.580 5.850 53.668
92.600 5.890 61.481
92.610 5.680 83.803
92.620 5.270 81.486
92.630 5.990 62.269
92.640 5.320 80.923
92.650 5.420 57.952
92.660 5.680 67.905
92.670 5.330 71.192
92.680 5.070 81.090
92.690 5.360 76.564
92.700 5.710 81.476
92.710 5.040 77.155
92.720 5.730 74.415
92.730 5.030 73.430
92.740 4.850 73.430
92.750 4.830 76.447
92.760 5.030 73.016
92.770 5.470 60.386
92.780 5.180 70.913
92.790 5.070 85.465
92.810 5.390 87.076
92.820 5.420 82.544
92.830 5.820 76.444
92.840 5.010 75.393
92.850 5.770 57.211
92.860 5.250 62.599
92.870 5.550 65.870
92.880 4.840 80.900
92.890 5.940 60.825
92.910 5.290 74.434
92.920 5.330 79.037
92.930 5.520 71.860
92.940 4.990 74.900
92.950 5.140 72.375
92.960 4.850 70.453
92.970 4.850 86.896
92.980 5.350 59.564
92.990 5.520 62.679
93.000 4.870 71.703
93.010 5.750 64.136
93.020 5.490 62.616
93.030 5.490 61.206
93.040 5.150 58.003
93.050 5.200 76.466
93.060 5.380 52.181
93.070 5.630 61.448
93.080 5.560 63.622
93.270 5.840 82.007
93.300 5.330 79.484
93.310 5.530 89.365
93.330 4.930 89.302
93.370 5.990 71.671
93.480 5.920 86.000
93.700 5.380 76.564
93.910 5.270 88.574
93.980 5.200 84.953
94.020 4.950 79.077
94.030 5.340 88.606
94.230 5.000 84.895
94.290 5.330 89.894
94.520 5.130 81.726
94.540 5.350 85.135
94.550 4.800 83.948
94.620 4.910 88.792
94.660 5.080 76.390
94.910 4.120 88.908
95.060 5.840 85.562
95.260 4.060 88.049
95.300 3.710 84.453
95.310 5.000 86.615
95.480 4.280 89.396
95.610 4.010 88.807
95.630 4.340 88.076
95.680 4.690 86.510
95.720 4.820 83.362
95.740 5.740 86.765
95.760 5.280 86.432
95.880 4.870 85.039
95.890 5.220 85.480
95.920 5.000 88.788
95.930 4.640 84.653
96.180 4.870 79.375
96.200 4.290 84.040
96.340 5.060 82.063
96.410 5.010 83.775
96.420 4.550 88.825
96.430 5.280 78.159
96.440 4.260 81.493
96.450 4.850 73.058
96.460 4.850 78.704
96.470 4.430 78.005
96.490 4.370 89.996
96.500 4.870 82.464
96.510 4.110 87.028
96.520 5.210 71.979
96.530 4.580 75.761
96.550 5.220 84.048
96.560 4.800 87.599
96.580 4.580 85.253
96.590 4.730 89.926
96.600 5.140 73.629
96.610 4.960 86.662
96.620 4.900 80.687
96.630 4.410 81.847
96.640 4.490 80.511
96.680 5.040 77.075
96.770 4.660 79.992
96.780 4.180 82.490
96.800 4.240 78.609
96.810 4.020 81.792
96.930 5.160 76.276
96.980 4.570 82.250
97.000 4.590 88.292
97.060 3.970 88.746
97.110 4.460 86.394
97.130 4.990 83.476
97.350 4.940 86.111
97.360 4.550 88.831
97.370 4.480 84.970
97.380 4.480 89.704
97.390 4.830 89.435
97.640 4.040 88.881
97.650 4.670 85.375
97.690 4.750 88.372
97.700 5.380 82.248
97.720 4.000 83.913
97.730 4.650 86.078
97.760 4.630 73.054
97.900 4.820 83.465
97.910 4.850 88.818
97.920 4.670 72.389
98.000 5.120 82.376
98.090 4.880 83.429
98.100 4.230 76.878
98.110 4.140 80.172
98.120 5.340 79.032
98.130 4.450 87.151
98.140 4.540 74.909
98.240 3.950 85.341
98.250 4.090 80.073
98.390 4.420 84.205
98.410 5.190 84.565
98.430 5.110 79.969
98.440 5.150 78.613
98.530 5.670 54.951
98.540 5.470 65.953
98.640 5.600 84.690
98.730 4.470 82.391
98.740 4.500 79.310
98.760 5.460 65.761
98.800 5.770 42.954
98.810 5.970 73.886
98.820 5.590 73.938
98.850 5.700 74.013
98.880 5.920 50.195
98.900 5.960 42.696
98.920 5.830 47.404
98.940 5.960 60.342
98.950 5.760 76.707
98.970 5.780 64.136
98.980 5.410 62.856
98.990 5.490 57.972
99.010 5.780 73.144
99.030 5.950 76.093
99.050 5.640 69.555
99.060 5.470 76.494
99.080 5.580 72.686
99.140 4.630 76.865
99.150 4.480 86.781
99.160 4.290 87.616
99.200 5.400 54.667
99.440 5.780 78.820
99.590 5.910 83.193
99.600 5.850 46.062
107.800 5.960 65.133
109.090 5.930 60.879
109.240 5.950 79.335
109.270 5.720 77.477
109.280 5.700 73.147
109.290 5.320 75.534
109.300 4.870 75.688
109.310 4.770 75.118
109.320 5.140 60.506
109.330 4.940 71.462
109.340 4.790 68.250
109.350 5.590 67.915
109.360 5.320 71.963
109.370 4.720 86.934
109.390 5.110 89.264
109.410 5.330 67.816
109.420 4.330 85.941
109.430 4.370 63.204
109.440 4.220 81.088
109.450 4.400 78.593
109.460 5.230 71.784
109.470 4.830 67.626
109.480 5.080 57.207
109.490 4.580 66.673
109.500 4.330 75.572
109.510 4.440 74.002
109.520 4.040 76.781
109.530 5.330 64.743
109.540 5.840 72.912
109.550 5.440 55.583
109.560 4.950 52.547
109.570 5.190 67.830
109.590 4.740 77.278
109.600 5.390 63.924
109.610 4.660 71.796
109.620 5.220 66.364
109.630 5.390 65.937
109.640 5.170 64.404
109.650 4.350 71.538
109.670 5.120 73.745
109.680 5.370 63.415
109.690 4.530 87.773
109.700 4.390 74.317
109.710 4.430 80.621
109.720 4.510 84.017
109.730 4.390 86.523
109.740 3.890 87.801
109.750 4.970 76.446
109.760 4.910 71.127
109.770 4.170 77.809
109.780 4.790 76.100
109.790 4.660 74.203
109.800 4.180 75.762
109.810 4.920 76.499
109.830 4.590 80.302
109.840 4.620 74.917
109.850 5.310 68.588
109.860 4.730 68.732
109.870 4.490 77.202
109.880 4.870 60.980
109.890 5.360 65.050
109.900 5.280 60.927
109.910 4.620 81.952
109.920 5.550 74.307
109.930 5.330 70.789
109.940 4.320 83.670
109.950 4.220 81.633
109.960 4.880 72.329
109.970 4.950 70.820
109.980 4.610 83.235
109.990 4.650 73.111
110.000 4.130 82.960
110.010 4.380 79.826
110.020 4.670 68.644
110.030 4.800 79.711
110.040 4.800 75.328
110.050 5.100 69.954
110.060 4.730 82.336
110.070 4.040 83.648
110.080 4.420 82.525
110.090 4.790 75.595
110.100 5.570 83.800
110.110 4.570 81.669
110.130 4.820 88.791
110.140 4.580 86.809
110.150 4.430 75.281
110.170 4.780 72.672
110.180 4.950 76.006
110.190 4.860 67.944
110.210 5.720 59.756
110.220 5.270 69.888
110.230 5.080 51.298
110.240 5.630 56.068
110.250 4.890 78.796
110.260 4.810 70.859
110.270 4.590 82.071
110.310 5.960 64.944
110.330 5.770 54.487
110.340 5.210 86.276
110.360 5.170 68.554
110.370 4.650 67.149
110.380 5.290 64.445
110.390 5.490 62.246
110.400 5.250 62.602
110.420 5.790 72.217
110.430 5.370 65.853
110.440 5.440 63.879
110.450 5.430 73.438
110.460 5.460 89.057
110.470 5.100 80.701
110.480 5.330 75.720
110.490 4.570 67.898
110.500 5.250 66.147
110.510 5.820 84.902
110.530 5.740 70.576
110.540 5.970 58.521
110.550 5.980 74.099
110.570 5.960 76.435
110.580 5.380 64.742
110.590 5.790 64.371
110.600 5.550 70.526
110.680 5.580 60.226
110.690 5.790 63.174
110.700 5.300 58.970
110.710 4.370 75.314
110.720 5.110 70.510
110.730 5.230 74.482
110.750 5.990 65.838
110.760 5.790 68.079
110.770 5.180 68.113
110.780 5.550 77.454
110.790 5.620 63.872
110.810 5.370 66.010
110.820 4.910 64.497
110.830 4.690 78.704
110.840 5.740 72.082
110.850 5.410 81.743
110.860 4.630 77.094
110.870 4.900 70.784
110.880 5.130 79.300
110.890 5.610 66.718
110.900 5.040 64.049
110.910 5.100 66.794
110.920 5.760 55.728
110.930 5.180 51.694
111.360 6.000 89.635
111.370 5.330 81.885
111.380 5.760 71.237
111.400 5.470 70.437
111.410 5.870 56.537
111.420 4.860 69.819
111.430 5.980 59.265
111.440 5.610 84.915
111.450 5.380 74.332
111.460 5.250 66.891
111.530 5.970 61.541
111.550 5.720 79.899
111.560 5.100 69.223
111.570 5.430 88.651
111.580 5.330 67.991
111.610 5.540 73.438
111.620 5.680 73.032
111.630 5.810 88.204
111.640 5.360 73.432
111.650 5.550 78.194
111.660 4.530 89.817
111.670 5.460 62.615
111.680 4.070 82.508
111.690 4.060 79.970
111.730 3.850 86.758
111.750 3.990 85.974
111.760 4.560 70.449
111.770 4.310 78.771
111.790 4.680 79.526
111.810 5.190 63.724
111.820 4.940 53.636
111.830 4.570 79.041
111.840 4.920 63.298
111.850 5.020 67.188
111.860 4.430 80.012
111.870 4.850 70.513
111.880 5.010 68.449
111.890 4.730 76.831
111.900 4.630 75.139
111.910 4.660 84.471
111.920 4.390 81.587
111.940 4.220 87.076
111.950 3.920 89.396
111.960 4.270 79.400
111.970 4.400 88.124
111.980 4.590 78.896
111.990 3.860 85.984
112.010 4.320 83.953
112.020 4.550 67.894
112.030 4.540 86.482
112.050 4.650 77.237
112.060 4.820 74.094
112.070 3.910 85.789
112.080 5.020 63.323
112.090 4.120 84.748
112.100 5.190 67.234
112.110 4.680 84.166
112.120 4.210 83.811
112.130 4.530 89.389
112.140 4.690 74.268
112.150 4.910 69.890
112.160 4.770 74.201
112.170 5.210 63.517
112.180 4.500 80.011
112.200 5.280 41.601
112.210 4.590 86.283
112.220 4.820 68.595
112.230 4.140 85.363
112.240 4.130 87.383
112.250 4.220 80.161
112.260 4.550 66.737
112.270 4.870 75.845
112.290 5.950 53.104
112.310 5.910 83.664
112.330 5.570 81.477
113.730 5.490 88.468
114.250 5.500 83.318
114.370 5.660 86.795
114.830 4.970 58.857
114.850 5.790 72.842
114.860 5.790 80.263
114.910 5.210 29.821
114.920 5.410 45.993
114.950 5.220 89.799
114.980 4.930 89.339
115.100 4.680 80.160
115.150 4.990 71.222
115.160 4.450 87.474
115.180 5.080 78.499
115.190 4.880 82.694
115.230 5.090 62.953
115.440 5.420 88.101
115.890 4.670 80.660
116.680 4.670 86.704
116.780 4.920 85.173
116.950 4.640 89.707
117.280 4.720 89.276
117.460 4.820 89.523
118.270 4.260 81.962
118.470 5.580 83.170
118.490 5.720 86.916
118.580 5.960 65.971
119.940 4.120 86.612
120.260 4.320 87.638
122.740 4.480 84.103
123.130 4.760 76.482
123.950 5.280 79.979
125.270 4.300 88.698
125.300 4.550 89.686
125.310 5.220 86.481
125.370 4.950 87.109
125.460 4.960 78.544
127.740 4.950 82.432
127.760 4.670 79.728
127.770 4.590 76.640
127.780 4.670 81.033
127.800 4.550 72.288
127.810 4.930 72.110
127.820 4.980 70.461
127.830 4.870 77.373
127.840 4.440 78.746
127.850 4.230 74.420
127.860 5.090 68.216
127.870 5.290 58.221
127.880 5.180 65.384
127.890 4.490 76.627
127.900 5.170 55.237
127.910 4.790 69.808
127.920 4.380 75.617
127.940 5.890 50.343
127.950 5.100 60.450
127.960 4.260 80.574
127.970 4.570 77.428
127.980 4.580 75.736
127.990 5.350 67.127
128.000 5.730 62.857
128.010 5.550 48.577
128.020 5.810 61.813
128.030 5.940 76.668
128.040 5.090 64.081
128.060 4.640 80.390
128.070 5.340 64.519
128.110 5.880 50.854
128.390 5.260 66.187
128.400 5.260 72.542
128.410 5.130 67.597
128.420 5.070 74.770
128.430 4.590 77.795
128.440 4.890 75.285
128.450 4.930 84.343
128.460 4.470 86.927
128.480 4.880 86.368
128.500 4.350 80.800
128.520 4.160 81.831
128.530 4.480 87.343
128.540 3.870 79.772
128.580 5.180 80.277
128.590 4.430 88.515
128.600 4.760 83.129
128.620 5.370 82.002
128.640 5.490 85.310
128.680 4.330 86.974
128.730 5.230 81.748
128.740 4.680 78.249
128.750 4.330 87.430
128.760 4.650 87.951
128.770 4.860 88.123
128.900 3.870 80.573
128.930 4.090 89.775
129.010 5.420 70.652
129.020 5.350 72.337
129.060 5.790 60.934
129.070 5.690 74.146
129.080 5.870 84.768
129.090 4.860 67.450
129.110 4.970 73.969
129.120 5.010 72.511
129.130 5.210 74.144
129.160 5.530 54.242
129.170 4.760 79.582
129.180 5.610 76.928
129.200 5.060 80.876
129.220 5.080 86.661
129.260 4.840 79.877
129.270 4.560 85.281
129.280 5.450 75.022
129.290 5.350 75.580
129.300 4.360 78.571
129.310 5.040 89.518
129.330 4.670 78.202
129.340 4.350 79.261
129.350 5.340 62.060
129.360 5.800 87.385
129.370 4.480 84.196
129.390 5.220 87.430
129.400 4.350 75.494
129.410 4.330 78.815
129.420 4.670 82.988
129.430 4.310 86.937
129.450 4.480 77.491
129.460 5.130 68.755
129.470 5.100 69.399
129.480 5.620 73.144
129.490 4.880 81.731
129.500 5.660 54.217
129.510 5.270 80.534
129.520 5.580 61.751
129.530 4.930 76.786
129.540 4.780 83.801
129.550 4.440 62.793
129.560 5.190 68.678
129.570 5.220 64.957
129.580 4.950 80.150
129.590 4.010 68.611
129.600 4.850 75.936
129.610 4.830 69.832
129.620 4.770 78.491
129.630 4.520 77.515
129.640 5.660 76.121
129.650 5.340 79.279
129.660 5.570 70.590
129.670 4.890 82.001
129.690 4.410 83.692
129.700 4.380 75.650
129.710 4.950 68.296
129.720 5.410 67.981
129.730 5.360 69.334
129.740 5.310 75.948
129.750 5.940 86.222
129.760 5.440 78.832
129.830 5.510 86.844
129.840 5.540 77.652
129.850 5.010 84.302
129.860 5.070 74.191
129.870 5.280 71.950
129.880 5.160 64.345
129.890 5.330 72.490
129.900 4.630 77.167
129.910 5.930 67.744
129.920 5.360 87.307
130.920 4.870 89.189
131.020 5.110 89.624
131.210 5.750 88.293
131.830 4.460 84.347
132.050 4.810 81.550
132.090 4.650 88.694
132.120 4.880 81.624
132.230 5.110 84.763
132.470 5.620 63.268
132.480 5.700 61.566
132.490 6.000 78.562
132.530 5.450 81.968
132.540 4.690 86.422
132.550 5.360 62.199
132.560 4.490 78.571
132.570 4.420 85.330
132.580 4.210 87.208
132.590 4.440 80.029
132.600 4.160 83.423
132.610 4.460 74.462
132.620 3.750 84.395
132.630 4.820 69.131
132.640 4.380 82.520
132.660 4.740 70.763
132.670 5.420 83.224
132.680 5.010 88.053
132.690 4.430 84.415
132.700 4.460 84.096
132.710 4.760 78.092
132.720 5.400 69.824
132.750 5.310 85.995
132.760 5.660 64.946
132.780 5.380 64.381
132.790 4.220 77.159
132.800 4.080 87.354
132.810 4.530 76.957
132.820 4.320 86.650
132.830 4.410 72.045
132.850 4.950 68.451
132.860 4.660 81.938
132.870 5.460 76.998
132.880 4.900 82.876
132.890 4.360 79.453
132.900 4.500 76.252
132.910 4.500 73.163
132.920 4.220 78.107
132.930 4.820 85.357
132.940 4.440 89.838
132.950 4.390 81.393
132.970 4.250 82.837
132.980 5.120 64.783
132.990 4.440 88.672
133.000 4.910 71.437
133.010 5.060 78.183
133.020 3.870 81.558
133.030 4.100 85.363
133.050 4.460 78.215
133.060 4.250 74.008
133.070 4.030 88.126
133.080 4.890 87.621
133.090 4.240 73.595
133.100 4.100 77.555
133.110 4.480 74.966
133.120 4.210 76.386
133.130 4.070 81.370
133.140 4.680 78.521
133.150 4.650 79.597
133.160 4.010 78.438
133.170 5.000 84.146
133.180 4.480 84.846
133.190 5.290 74.282
133.200 4.010 89.734
133.210 4.670 79.588
133.220 4.540 79.909
133.230 4.550 83.635
133.240 4.570 74.033
133.250 4.720 84.128
133.260 5.280 69.128
133.270 4.840 64.621
133.290 5.110 72.788
133.300 4.830 72.961
133.310 4.860 81.338
133.320 5.450 65.924
133.330 5.290 66.164
133.340 4.610 81.990
133.350 5.090 67.155
133.360 4.790 84.577
133.370 5.280 74.676
133.380 5.680 73.910
133.390 5.970 60.364
133.400 5.620 54.463
133.410 5.660 68.032
133.420 5.690 68.490
133.430 5.980 69.508
133.440 5.130 73.388
133.450 5.400 85.781
133.460 5.250 57.203
133.470 5.320 88.569
133.480 5.800 72.391
133.490 5.710 64.478
133.500 5.230 68.079
133.510 4.660 71.889
133.520 4.850 74.354
133.530 4.840 73.605
133.540 3.760 85.923
133.550 4.470 78.037
133.560 4.890 75.032
133.570 4.850 63.631
133.580 5.200 72.986
133.590 5.010 70.284
133.600 5.830 54.188
133.610 5.460 68.005
133.620 4.570 79.455
133.630 5.320 69.790
133.640 5.380 78.794
133.660 4.900 66.741
133.670 4.930 77.798
133.680 4.440 85.368
133.690 5.140 65.538
133.700 4.650 87.235
133.710 4.730 76.852
133.720 4.220 83.131
133.730 5.410 69.592
133.740 4.290 83.131
133.750 4.580 83.497
133.760 4.380 77.303
133.770 4.830 86.706
133.780 3.990 80.046
133.790 4.190 82.503
133.800 4.250 78.016
133.820 4.120 82.135
133.830 4.480 83.123
133.840 4.330 80.225
133.850 4.150 80.399
133.870 4.310 87.132
133.880 5.470 73.202
133.890 4.640 76.438
133.900 5.020 77.320
133.910 4.440 80.303
133.920 4.050 86.863
133.930 4.660 78.405
133.940 4.130 81.405
133.950 4.440 81.335
133.960 4.070 89.487
133.980 4.470 79.150
134.020 4.590 74.216
134.030 3.980 85.599
134.040 4.400 87.905
134.060 4.300 80.083
134.080 4.120 81.077
134.090 4.090 85.266
134.100 4.620 75.948
134.110 4.940 74.320
134.120 4.400 73.924
134.130 4.390 87.005
134.140 4.400 71.299
134.160 4.390 79.297
134.170 4.430 84.237
134.180 4.070 88.710
134.200 4.340 84.076
134.210 5.300 75.768
134.220 4.490 77.413
134.230 4.350 89.295
134.250 4.020 88.584
134.260 4.080 89.099
134.280 4.270 85.448
134.300 4.840 71.401
134.310 5.090 75.353
134.320 4.600 88.999
134.330 4.460 88.242
134.340 4.960 78.678
134.370 5.620 77.779
134.380 5.600 81.235
134.410 5.070 78.449
134.420 5.660 66.499
134.430 5.120 73.965
134.440 5.320 76.022
134.450 5.010 82.152
134.470 4.790 78.642
134.480 4.500 80.321
134.500 4.270 85.539
134.510 4.130 80.335
134.520 4.310 88.109
134.530 4.590 83.975
134.540 4.940 82.442
134.550 4.620 82.877
134.560 4.370 78.529
134.570 3.780 83.218
134.580 4.120 85.450
134.590 4.450 86.574
134.600 4.410 77.825
134.650 4.520 80.867
134.670 4.120 87.713
134.680 4.980 83.233
134.690 4.310 87.884
134.700 4.710 66.542
134.710 4.970 80.321
134.730 4.470 84.651
134.750 4.770 87.417
134.770 4.300 84.842
134.780 4.050 85.057
134.810 3.900 86.936
134.850 4.560 78.326
134.860 4.230 87.101
134.870 4.070 83.939
134.880 4.350 81.757
134.890 4.190 85.812
134.900 3.990 87.947
134.930 4.520 82.797
134.940 4.310 84.060
134.950 4.270 83.438
134.960 3.960 83.968
134.970 4.510 80.612
134.980 5.250 77.261
134.990 4.100 82.559
135.010 4.910 79.748
135.030 4.890 79.774
135.040 5.230 77.217
135.050 4.590 85.837
135.070 4.270 88.020
135.080 4.490 86.179
135.090 4.580 84.329
135.120 4.370 84.311
135.130 4.270 79.286
135.140 4.310 81.010
135.150 4.700 88.195
135.160 5.100 74.409
135.170 4.920 82.966
135.180 4.710 77.450
135.210 4.500 84.464
135.220 5.070 81.682
135.320 4.800 87.850
135.390 4.300 83.014
135.430 4.550 82.072
135.470 4.740 80.096
135.490 4.330 86.208
135.510 4.360 72.802
135.540 4.780 86.320
135.570 4.470 84.700
141.590 5.060 89.948
141.600 5.500 89.679
141.630 5.230 88.405
142.380 4.460 87.411
142.410 4.430 89.824
142.500 4.020 86.994
142.520 4.430 89.839
142.530 3.680 86.616
142.570 4.530 87.521
142.650 4.810 86.370
142.670 4.870 88.596
142.750 5.610 87.935
142.770 4.700 89.894
142.930 4.880 87.677
143.330 4.240 84.078
143.350 4.850 86.196
143.400 4.350 85.438
144.180 5.090 85.347
144.200 4.840 80.390
144.210 4.000 79.455
144.250 4.430 87.890
144.350 4.930 86.574
144.380 3.870 88.634
144.710 4.550 87.436
144.930 4.770 88.491
145.120 4.700 89.600
145.190 4.500 88.370
145.860 4.420 77.801
146.190 5.250 78.004
146.330 4.140 89.246
146.340 4.500 89.571
146.590 4.330 85.826
146.710 5.270 89.665
146.730 5.590 78.281
146.740 5.090 88.196
146.750 4.560 87.595
146.790 4.840 88.882
146.890 4.350 84.510
147.050 5.160 80.994
147.070 4.570 89.905
147.130 4.540 88.989
147.150 4.440 88.595
147.260 4.540 78.298
147.770 4.680 88.360
148.770 4.420 87.407
151.790 4.370 75.186
151.800 4.550 77.002
151.830 4.740 88.875
151.850 4.640 88.874
151.860 5.440 88.790
151.930 4.890 89.878
152.020 5.410 84.897
152.210 4.710 82.208
152.260 5.010 52.603
152.270 4.660 51.556
152.360 4.560 79.934
152.370 5.070 56.121
152.510 5.320 88.787
152.530 4.850 84.974
152.680 4.090 86.800
152.860 4.030 85.053
153.490 5.010 88.172
153.900 4.380 89.703
154.320 4.310 77.051
154.650 5.700 88.436
154.660 5.410 88.155
154.750 4.770 77.191
154.770 5.930 89.366
154.810 4.900 88.179
154.840 4.370 87.176
155.070 5.650 83.774
155.080 5.220 80.804
155.100 4.970 88.704
155.300 3.860 82.681
155.360 4.740 84.446
155.470 4.480 86.851
155.610 4.820 82.560
155.740 3.900 89.175
155.780 4.210 66.462
155.800 4.160 88.845
155.820 4.340 80.419
155.860 4.320 84.925
156.140 4.750 85.620
156.150 4.830 77.877
156.170 4.140 83.227
156.310 4.420 78.997
156.320 4.920 81.924
156.390 5.040 81.485
156.400 4.690 80.569
156.590 4.960 83.594
156.730 5.570 68.914
156.750 4.960 65.955
156.830 4.220 86.087
157.300 4.340 88.869
158.080 4.130 86.104
158.290 3.960 85.595
158.680 3.740 87.682
158.700 3.720 89.388
158.740 3.830 83.334
158.760 4.870 85.875
158.770 5.140 89.181
158.780 4.600 83.421
158.840 4.820 77.254
158.890 4.040 89.603
159.150 4.140 89.765
159.390 4.340 89.144
159.440 4.170 82.470
159.450 3.730 82.450
159.510 4.020 86.792
159.520 4.630 87.797
159.540 4.790 85.981
159.550 4.350 88.499
159.710 4.230 85.334
159.820 4.180 85.658
160.120 3.610 42.718
160.130 3.820 83.177
160.140 3.340 43.601
160.150 3.620 30.131
160.160 3.660 20.834
160.170 3.670 33.766
160.180 3.800 24.535
160.190 3.600 17.113
160.200 3.630 23.856
160.210 3.640 29.482
160.240 5.650 89.472
170.250 3.390 79.309
170.540 3.420 89.279
171.060 3.660 54.129
171.070 4.000 64.417
171.710 3.570 80.262
172.440 3.390 76.664
172.460 3.350 85.192
172.510 3.500 86.879
172.580 3.280 74.030
172.590 3.370 68.964
172.600 3.650 63.435
172.610 3.860 52.088
172.620 3.480 74.073
172.630 3.660 66.023
172.640 3.620 66.741
172.650 3.930 61.898
172.660 3.900 60.718
172.670 3.810 66.347
172.680 3.590 62.286
172.690 4.210 61.224
172.700 3.950 54.785
172.710 3.750 58.198
172.720 3.770 67.941
172.730 5.020 50.504
172.740 4.670 62.433
172.750 5.590 65.491
172.760 4.660 59.557
172.770 3.860 48.787
172.780 3.490 71.143
172.790 3.700 70.496
172.800 3.710 57.950
172.810 4.080 66.734
172.820 3.610 63.064
172.830 3.550 66.482
172.840 3.720 63.001
172.850 3.730 75.772
172.860 3.470 57.255
172.870 3.620 47.423
172.880 3.650 57.344
172.890 3.530 72.033
172.900 3.730 61.741
172.910 3.580 58.451
172.920 3.490 70.286
172.930 3.470 56.749
172.940 3.710 64.590
172.950 3.600 77.038
172.960 3.800 80.932
172.970 3.620 52.853
172.980 4.060 55.796
172.990 5.000 67.608
173.000 3.990 51.849
173.010 3.770 63.141
173.020 3.730 56.552
173.030 4.300 53.631
173.040 4.390 60.643
173.050 4.530 65.629
173.060 4.800 66.083
173.070 4.230 77.495
173.080 3.770 54.991
173.090 4.660 54.037
173.100 3.660 66.018
173.110 5.170 56.730
173.120 3.650 53.022
173.130 3.520 65.960
173.140 5.080 70.935
173.150 5.420 49.091
173.160 5.410 52.132
173.170 5.730 75.008
173.260 5.670 42.829
173.280 4.630 63.663
173.290 4.420 59.602
173.300 5.040 46.634
173.310 5.460 31.527
173.320 5.400 77.750
173.330 5.540 30.257
173.340 5.470 53.220
173.350 4.690 43.010
173.360 5.570 59.448
173.370 5.400 55.949
173.460 5.170 76.885
173.470 4.460 72.183
173.500 4.540 70.133
173.520 5.030 72.821
173.540 5.740 71.371
173.550 5.210 86.482
173.620 4.950 65.200
173.630 4.670 55.923
173.650 4.780 67.995
173.660 4.640 81.234
173.670 4.120 44.271
173.680 3.780 57.464
173.690 3.760 58.889
173.700 3.540 60.096
173.710 3.530 87.944
173.720 3.730 66.382
173.730 3.810 72.942
173.740 3.990 67.982
173.750 4.680 65.557
173.760 3.980 68.023
173.770 3.680 73.109
173.780 4.420 56.758
173.790 3.690 69.741
173.800 4.020 65.486
173.810 4.060 56.869
173.820 3.680 54.540
173.830 4.350 66.092
173.840 3.690 53.153
173.850 3.730 74.348
173.860 4.050 69.685
173.870 4.260 78.345
173.880 4.490 77.837
173.890 3.800 70.538
173.900 3.730 65.057
173.910 3.630 61.517
173.920 4.300 48.120
173.930 3.770 58.753
173.940 3.660 68.413
173.950 3.640 61.041
173.960 3.550 40.897
173.970 3.690 74.781
173.980 3.550 70.490
173.990 3.920 68.394
174.000 3.470 79.549
174.010 3.690 61.885
174.020 3.760 72.889
174.030 3.660 61.926
174.040 3.510 56.145
174.050 4.030 61.118
174.060 3.490 64.064
174.070 3.770 52.221
174.080 3.830 61.173
174.090 3.640 67.458
174.100 3.510 62.355
174.110 3.620 60.999
174.120 3.560 58.082
174.130 3.540 58.712
174.140 3.640 72.019
174.150 3.510 79.056
174.160 3.670 70.573
174.170 3.590 68.417
174.180 3.740 71.110
174.190 3.600 78.494
174.200 3.590 67.314
174.210 3.670 57.917
174.220 3.570 65.500
174.230 3.900 59.738
174.240 3.700 63.687
174.250 3.470 71.563
174.260 3.600 65.016
174.270 3.800 61.272
174.280 3.920 62.728
174.290 3.580 54.913
174.300 3.870 40.358
174.310 3.680 52.755
174.320 3.860 59.499
174.330 3.940 74.941
174.340 3.990 55.163
174.350 3.910 70.307
174.360 3.750 56.970
174.370 3.630 47.711
174.380 4.130 42.888
174.390 4.120 52.598
174.400 3.430 66.583
174.410 3.720 66.009
174.420 3.670 63.826
174.430 3.690 52.002
174.440 3.550 45.740
174.450 3.510 64.112
174.460 3.600 67.116
174.470 4.010 65.704
174.480 4.430 46.100
174.490 3.800 52.956
174.500 4.150 58.016
174.510 4.530 58.821
174.520 4.190 64.771
174.530 4.030 64.591
174.540 3.780 70.779
174.550 3.560 68.092
174.560 3.760 66.574
174.570 3.690 52.597
174.580 3.770 69.074
174.590 3.590 62.931
174.600 3.770 60.194
174.610 4.120 44.888
174.620 4.700 65.068
174.630 3.830 60.726
174.640 3.690 66.460
174.650 4.610 47.342
174.660 3.810 71.022
174.670 3.940 54.292
174.680 3.650 66.928
174.690 3.790 56.624
174.700 3.930 71.273
174.710 4.060 66.284
174.720 4.660 49.370
174.730 4.110 68.225
174.740 4.530 48.362
174.750 4.080 56.989
174.760 4.750 56.247
174.770 5.110 66.041
174.780 4.850 50.594
174.790 4.470 48.653
174.800 4.980 49.882
174.810 5.250 49.445
174.820 5.000 55.787
174.830 5.040 67.682
174.840 4.900 70.071
174.850 4.850 49.254
174.860 5.630 51.091
174.870 4.980 66.913
174.880 5.720 49.848
174.900 5.430 50.808
174.910 3.990 61.386
174.920 4.930 48.478
174.930 4.370 47.099
174.940 5.200 32.621
174.950 4.990 38.960
174.960 5.160 52.271
174.970 5.380 53.613
174.980 5.390 45.936
174.990 4.880 55.977
175.000 4.440 58.719
175.010 5.140 44.342
175.020 4.410 58.027
175.030 3.690 73.483
175.040 3.520 77.587
175.050 3.610 68.275
175.060 4.040 66.199
175.070 3.790 78.823
175.080 3.570 62.134
175.090 3.670 73.297
175.100 5.310 69.332
175.110 3.820 64.524
175.120 4.080 71.116
175.130 3.690 70.650
175.140 3.970 76.586
175.150 4.940 82.385
175.160 4.710 58.846
175.170 4.480 68.065
175.180 3.630 85.943
175.190 3.870 70.707
175.200 4.630 61.948
175.210 4.230 54.332
175.220 4.930 65.746
175.230 4.780 55.325
175.240 4.550 73.176
175.250 3.540 64.882
175.260 3.840 74.528
175.270 3.560 58.894
175.280 3.590 67.504
175.290 3.890 62.444
175.300 3.570 54.597
175.310 3.570 72.335
175.330 3.650 66.295
175.350 3.820 69.498
175.360 3.950 76.366
175.370 3.970 81.518
175.390 4.150 89.312
175.400 5.620 61.767
175.410 4.700 62.897
175.420 5.210 44.293
175.430 5.120 64.621
175.440 4.960 76.488
175.450 5.190 55.351
175.460 5.010 55.800
175.470 4.910 63.439
175.480 5.050 61.240
175.490 5.240 65.936
175.500 5.790 49.347
175.510 5.750 64.904
175.520 5.520 58.854
175.530 5.420 81.472
175.540 5.410 75.453
175.550 4.690 73.331
175.560 5.300 71.691
175.570 4.460 62.691
175.580 4.390 57.685
175.590 4.740 60.375
175.600 5.450 46.795
175.610 4.360 72.860
175.620 4.260 69.272
175.630 4.490 63.065
175.640 5.550 82.025
175.650 5.850 58.982
175.660 4.920 69.199
175.670 5.010 55.623
175.680 4.230 63.055
175.690 4.750 66.154
175.700 4.450 58.209
175.710 5.110 57.524
175.720 4.990 53.007
175.730 4.730 59.872
175.740 5.170 47.641
175.750 5.210 58.329
175.760 5.530 83.362
175.770 5.250 52.192
175.780 4.790 53.010
175.790 4.830 62.911
175.800 5.060 49.874
175.810 4.250 61.470
175.820 4.590 56.742
175.830 4.570 71.192
175.840 4.860 65.818
175.850 4.930 65.426
175.860 4.990 63.800
175.870 4.890 75.052
175.880 5.360 72.358
176.310 5.450 87.713
176.320 5.050 70.745
176.350 4.590 79.435
176.360 4.540 76.411
176.370 4.860 77.646
176.380 4.200 70.838
176.390 4.120 69.946
176.400 4.780 56.881
176.410 4.710 77.302
176.420 5.150 66.794
176.430 5.670 45.396
176.440 5.040 69.637
176.450 4.720 49.785
176.460 3.930 28.482
176.470 3.660 50.801
176.480 3.880 63.529
176.490 5.750 56.741
176.500 4.130 81.577
176.510 4.040 60.242
176.520 3.980 69.902
176.530 3.610 71.357
176.540 3.710 56.495
176.550 3.540 71.258
176.560 3.930 57.492
176.570 4.840 48.537
176.580 3.700 72.192
176.590 3.790 79.319
176.600 3.680 88.489
176.610 3.450 83.783
176.620 3.510 70.452
176.630 3.420 71.622
176.640 4.040 72.535
176.650 3.530 87.038
176.660 3.510 65.693
176.680 4.430 64.866
176.690 3.860 61.879
176.700 4.160 56.425
176.710 4.740 56.641
176.720 4.780 76.227
176.740 4.490 72.252
176.750 3.710 71.818
176.760 3.640 78.582
176.770 4.160 83.532
176.780 4.480 78.466
176.790 4.780 58.891
176.800 3.880 78.671
176.810 3.810 79.078
176.820 4.030 56.071
176.830 3.510 65.004
176.840 4.320 49.974
176.850 3.560 71.081
176.860 3.800 75.509
176.870 4.310 81.546
176.880 4.810 54.112
176.890 4.650 53.267
176.900 4.310 63.614
176.910 4.020 61.795
176.920 4.510 66.795
176.930 3.730 74.466
176.940 4.600 68.338
176.950 5.300 62.518
176.960 4.000 66.410
176.970 5.040 59.844
176.980 4.830 57.087
176.990 5.900 46.349
177.000 3.890 55.082
177.010 3.700 62.383
177.020 3.570 65.767
177.030 3.660 68.297
177.040 4.440 71.429
177.050 3.650 57.198
177.060 4.720 45.176
177.070 4.720 59.481
177.080 4.530 52.130
177.090 3.630 60.496
177.100 4.020 44.382
177.110 3.770 67.745
177.120 3.510 67.557
177.130 3.630 63.866
177.140 3.770 57.008
177.150 4.170 69.366
177.160 3.640 69.859
177.170 3.840 71.127
177.180 3.730 66.581
177.190 3.960 53.223
177.200 3.530 52.332
177.210 3.560 55.591
177.220 3.610 48.290
177.230 5.250 40.787
177.240 5.170 37.635
177.250 4.820 38.162
177.260 5.710 37.502
177.270 4.800 49.931
177.280 5.610 45.705
177.290 4.820 69.034
177.300 3.830 58.982
177.310 5.490 45.076
177.320 5.030 44.403
177.330 4.860 57.198
177.340 4.870 28.466
177.350 5.000 39.464
177.360 5.550 47.734
177.380 4.130 59.175
177.390 4.470 48.733
177.400 4.980 50.717
177.410 5.750 36.288
177.420 5.170 29.167
177.430 5.480 36.533
177.440 5.750 40.264
177.460 5.950 49.951
177.470 5.140 35.469
177.480 5.640 42.223
177.490 5.450 35.338
177.500 5.320 36.120
177.510 5.790 35.424
177.520 5.490 50.013
177.540 5.170 77.870
177.550 4.760 45.352
177.560 3.800 67.671
177.570 4.940 54.805
177.580 4.970 44.918
177.590 3.850 64.140
177.600 5.310 35.350
177.610 5.050 49.545
177.620 3.980 58.915
177.630 4.730 50.379
177.640 3.720 52.644
177.650 4.540 57.040
177.660 4.670 49.360
177.670 5.560 49.427
177.680 5.860 47.296
177.690 5.120 46.129
177.700 5.870 34.879
177.710 5.780 45.953
177.750 5.900 77.230
177.760 5.980 74.154
177.770 5.810 75.172
177.780 5.410 71.137
177.800 5.440 55.671
177.810 5.530 61.205
177.820 4.900 56.019
177.830 3.470 69.808
177.840 3.410 40.945
177.850 3.750 42.147
177.860 3.830 53.321
177.870 3.600 65.267
177.880 3.940 79.199
177.890 3.830 52.160
177.900 4.060 47.475
177.910 3.690 50.875
177.920 3.540 40.723
177.930 3.790 49.067
177.940 3.620 65.123
177.950 3.390 85.228
177.960 3.530 55.075
177.970 3.650 53.311
177.980 3.450 45.763
177.990 3.440 59.643
178.020 3.400 72.481
178.040 3.500 89.282
178.050 3.450 65.923
178.080 3.370 80.903
178.090 3.520 71.559
178.100 3.740 75.311
178.120 3.270 86.786
178.130 3.360 66.259
178.140 3.620 83.845
178.150 3.410 73.758
178.160 3.790 88.034
178.170 3.470 84.420
178.200 3.550 78.640
178.210 3.670 77.052
178.230 3.410 87.375
178.250 3.410 84.828
178.280 3.460 88.462
178.300 3.420 89.111
178.320 3.440 81.162
178.330 3.540 78.847
178.340 3.700 67.355
178.350 3.590 76.251
178.360 3.530 75.470
178.390 3.450 80.146
178.400 3.350 80.162
178.410 3.440 80.683
178.420 3.660 85.846
178.460 3.310 62.876
178.480 3.380 70.642
178.500 3.470 87.954
178.510 3.630 77.542
178.520 3.310 73.507
178.540 3.680 76.282
178.550 3.560 71.735
178.560 3.730 79.697
178.570 3.510 70.240
178.600 3.470 80.465
178.610 3.560 87.073
178.620 3.570 80.242
178.640 3.810 84.865
178.660 3.470 81.199
178.680 3.500 72.065
178.690 3.410 76.629
178.720 3.570 82.874
178.770 3.430 83.680
178.790 3.410 72.816
178.890 3.630 75.559
178.900 3.530 64.198
178.980 3.380 79.493
178.990 3.540 83.555
179.040 3.480 88.345
179.100 3.440 77.349
179.200 3.620 83.297
179.220 3.360 87.255
179.230 3.430 83.447
179.250 3.390 78.324
179.280 3.490 71.479
179.330 3.430 77.727
179.340 3.440 88.929
179.370 3.490 88.600
179.380 3.490 89.066
179.400 3.490 89.373
179.410 3.480 87.202
179.470 3.520 82.481
179.490 3.770 75.843
179.500 3.510 82.593
179.510 3.730 76.732
179.520 3.450 77.171
179.530 3.500 88.878
179.540 3.530 69.806
179.550 3.570 70.293
179.560 3.630 89.480
179.570 3.520 87.274
179.590 3.710 83.940
179.610 3.750 71.549
179.630 3.860 69.207
179.670 3.530 88.645
179.700 3.740 80.881
179.710 3.730 81.095
179.730 3.820 78.229
179.740 3.790 74.242
179.750 3.770 85.404
179.770 3.710 80.429
179.780 3.610 73.575
179.790 3.610 82.870
179.800 3.430 81.942
179.810 3.710 70.184
179.820 3.610 87.124
179.830 3.840 80.188
179.840 3.530 78.903
179.890 3.990 89.189
179.900 3.670 80.094
179.910 3.940 77.159
179.920 3.670 60.906
179.930 3.600 74.467
179.940 3.630 66.073
179.950 3.480 57.086
179.960 3.500 81.460
179.970 3.610 86.486
179.980 3.350 74.529
180.000 3.430 75.906
180.010 3.520 66.920
180.030 3.490 80.615
180.040 3.800 82.163
180.050 3.330 87.597
180.060 3.470 83.156
180.070 3.670 85.033
180.090 3.530 75.165
180.100 3.750 74.505
180.110 3.570 89.217
180.120 3.550 88.756
180.130 3.570 87.360
180.140 3.500 71.966
180.150 3.530 81.786
180.160 3.670 81.390
180.170 3.360 82.676
180.210 3.650 85.223
180.230 3.730 72.959
180.240 3.500 68.276
180.250 3.700 89.046
180.310 3.350 78.249
180.330 3.700 70.692
180.340 3.600 76.841
180.350 3.490 83.753
180.360 3.630 78.744
180.370 3.620 68.015
180.380 3.520 79.011
180.400 3.700 66.675
180.410 3.430 74.126
180.420 3.430 88.516
180.430 3.700 70.346
180.450 3.620 85.626
180.460 3.700 71.636
180.470 3.700 86.666
180.480 3.870 77.202
180.490 3.730 81.211
180.500 3.680 82.328
180.510 3.640 81.406
180.520 3.620 65.956
180.530 3.860 76.522
180.540 4.060 70.235
180.550 3.590 75.851
180.560 3.910 64.789
180.580 3.460 80.521
180.590 3.720 78.795
180.600 3.560 76.275
180.610 3.740 59.802
180.620 3.760 70.958
180.630 3.930 46.721
180.640 3.810 66.263
180.650 4.900 64.926
180.660 5.530 71.090
180.670 4.870 81.038
180.700 5.470 79.415
180.710 5.600 72.443
180.720 5.300 78.689
180.770 3.440 59.785
180.780 3.460 35.106
180.790 3.930 30.503
180.800 3.340 24.187
180.810 3.470 28.145
180.820 3.530 54.793
180.830 3.610 53.045
180.840 3.600 43.971
180.850 3.660 38.353
180.860 3.690 29.034
180.870 3.800 30.391
180.880 3.680 35.973
180.890 3.530 18.191
180.900 3.890 18.106
180.910 3.600 45.895
180.920 3.450 22.251
180.930 3.510 24.539
180.940 3.610 31.707
180.960 3.510 83.279
180.970 3.530 79.264
180.980 3.350 56.174
180.990 3.390 80.758
181.000 3.390 64.435
181.010 3.430 80.650
181.020 3.620 56.977
181.030 3.410 86.525
181.040 3.320 68.253
181.050 3.500 68.131
181.070 3.470 48.391
181.080 3.580 77.885
181.090 3.420 58.088
181.100 3.660 60.234
181.110 3.600 66.336
181.180 3.540 65.187
181.210 3.360 72.386
181.250 3.430 83.351
181.260 3.550 59.516
181.270 3.400 73.463
181.280 3.600 63.349
181.300 3.440 78.979
181.310 3.510 85.837
181.320 3.610 69.794
181.350 3.460 64.978
181.360 3.460 86.813
181.370 3.470 89.479
181.380 3.400 87.835
181.420 3.490 82.985
181.430 3.610 81.895
181.440 3.520 86.741
181.450 3.440 65.737
181.470 3.560 63.161
181.480 3.450 39.369
181.490 3.510 59.049
181.500 3.560 73.147
181.510 3.400 74.321
181.520 3.490 54.946
181.530 3.370 45.382
181.540 3.830 63.551
181.550 3.510 82.918
181.560 3.490 85.536
181.570 3.530 50.935
181.580 3.780 50.502
181.590 3.540 75.590
181.600 3.710 62.732
181.610 3.530 76.792
181.620 3.440 69.187
181.630 3.440 75.636
181.640 3.400 84.759
181.650 3.420 53.056
181.660 3.270 49.522
181.670 3.600 76.419
181.690 3.780 80.701
181.710 3.520 72.603
181.720 3.500 70.120
181.730 3.550 64.961
181.750 3.490 81.828
181.760 3.670 65.713
181.780 3.350 88.660
181.790 3.590 84.732
181.800 3.630 63.279
181.810 3.590 89.020
181.830 3.500 85.669
181.840 3.350 80.024
181.850 3.430 46.999
181.860 3.350 44.649
181.870 3.490 42.253
181.890 3.770 63.714
181.900 3.530 87.899
181.910 3.780 73.203
181.920 3.420 59.499
181.930 3.440 43.577
181.940 3.520 58.956
181.950 3.470 39.030
181.960 3.610 56.556
181.970 3.370 74.174
181.980 3.710 42.273
181.990 3.550 60.806
182.000 3.680 63.290
182.010 3.530 71.347
182.020 3.490 44.089
182.030 3.520 67.586
182.040 3.520 58.099
182.050 3.340 67.256
182.060 3.620 64.874
182.070 3.500 69.924
182.080 3.760 66.902
182.090 3.480 52.664
182.100 3.390 76.664
182.110 3.420 66.644
182.120 3.300 37.222
182.130 3.470 72.537
182.140 3.620 77.354
182.150 3.630 64.035
182.160 3.340 87.672
182.170 3.690 72.997
182.180 3.650 60.369
182.190 3.430 74.272
182.200 3.400 86.341
182.210 3.470 55.825
182.220 3.420 76.356
182.230 3.630 68.703
182.240 3.480 57.429
182.250 3.470 41.837
182.260 3.390 62.927
182.270 3.410 68.693
182.280 3.440 53.750
182.290 3.610 63.764
182.300 3.360 76.348
182.310 3.690 77.565
182.320 3.430 58.521
182.330 3.360 64.685
182.340 3.420 60.140
182.350 3.560 79.836
182.360 3.520 77.042
182.370 3.470 82.595
182.380 3.550 67.479
182.390 3.480 81.178
182.400 3.490 61.830
182.410 3.420 88.701
182.420 3.460 81.903
182.430 3.510 71.746
182.440 3.660 76.933
182.450 3.600 61.585
182.460 3.660 65.273
182.470 3.510 63.991
182.480 3.420 89.555
182.490 3.450 70.865
182.500 3.570 70.372
182.510 3.450 78.420
182.530 3.540 83.845
182.540 3.470 50.108
182.550 3.510 61.310
182.560 3.590 57.017
182.570 3.550 73.869
182.580 3.500 57.116
182.590 3.650 89.630
182.600 3.530 89.884
182.610 3.850 71.619
182.620 3.540 66.069
182.630 3.430 89.964
182.640 3.390 83.784
182.650 3.470 75.384
182.660 3.360 61.674
182.690 3.510 83.442
182.710 3.480 81.762
182.720 3.460 75.215
182.730 3.750 84.158
182.740 3.330 72.904
182.750 3.400 78.864
182.760 3.190 52.975
182.770 3.290 55.768
182.780 3.540 88.829
182.790 3.570 85.638
182.820 3.390 65.234
182.840 3.480 81.310
182.850 3.270 63.584
182.860 3.420 87.320
182.890 3.590 57.483
182.900 3.490 75.563
182.910 3.540 70.610
182.920 3.490 78.439
182.930 3.400 83.003
182.940 3.600 59.199
182.950 3.320 50.065
182.960 3.470 74.455
182.970 3.520 73.638
182.990 3.550 82.905
183.000 3.450 87.362
183.010 3.710 63.410
183.020 3.450 71.157
183.030 3.440 89.857
183.040 3.440 84.486
183.050 3.520 88.871
183.060 3.440 79.052
183.070 3.650 73.963
183.080 3.380 82.435
183.100 3.440 89.118
183.120 3.540 78.119
183.130 3.490 79.896
183.140 3.560 69.811
183.150 3.440 59.204
183.160 3.330 78.906
183.170 3.440 69.429
183.190 3.340 73.199
183.200 3.530 64.572
183.210 3.490 78.505
183.220 3.480 88.394
183.230 3.540 64.549
183.240 3.350 72.963
183.250 3.330 87.415
183.260 3.420 75.965
183.280 3.550 53.975
183.290 3.410 72.225
183.300 3.520 61.216
183.310 3.360 85.438
183.320 3.500 68.789
183.330 3.640 66.460
183.340 3.500 63.316
183.350 3.370 70.237
183.360 3.610 89.060
183.370 3.390 85.810
183.390 3.300 44.079
183.400 3.340 89.342
183.410 3.570 82.418
183.420 3.570 66.978
183.430 3.410 65.605
183.450 3.610 66.955
183.460 3.380 58.000
183.470 3.390 75.607
183.480 3.600 75.895
183.490 3.350 67.243
183.500 3.430 84.006
183.510 3.400 75.718
183.520 3.430 78.542
183.530 3.340 80.213
183.550 3.290 67.273
183.560 3.550 57.651
183.570 3.550 30.234
183.580 3.280 56.977
183.600 3.430 69.958
183.610 3.450 79.004
183.630 3.500 79.077
183.650 3.370 83.965
183.670 3.470 83.063
183.690 3.570 79.782
183.700 3.410 63.256
183.710 3.400 89.017
183.720 3.320 82.944
183.760 3.600 77.996
183.790 3.430 84.102
183.800 3.730 71.750
183.880 3.450 82.635
183.890 3.420 89.394
183.930 3.350 86.276
183.950 3.410 64.807
183.960 3.430 86.643
183.970 3.370 62.573
184.000 3.390 79.839
184.010 3.340 79.185
184.030 3.370 81.913
184.040 3.390 84.147
184.050 3.520 81.854
184.060 3.400 83.914
184.080 3.740 82.590
184.100 3.670 89.141
184.110 3.480 85.447
184.130 3.640 64.667
184.140 3.490 80.802
184.150 3.530 65.555
184.160 3.540 72.964
184.170 4.020 85.526
184.180 3.570 86.418
184.190 3.560 85.881
184.200 3.790 76.949
184.210 3.480 81.325
184.230 3.690 80.263
184.240 3.860 73.175
184.270 3.450 80.945
184.280 3.420 78.798
184.320 3.530 89.705
184.330 3.560 78.347
184.380 3.650 80.815
184.390 3.410 88.603
184.440 3.530 86.296
184.460 3.560 81.696
184.480 3.400 86.291
184.540 3.580 83.061
184.560 3.600 82.636
184.580 4.050 89.052
184.590 3.330 64.059
184.600 3.430 54.584
184.610 3.480 68.588
184.640 3.500 87.327
184.650 3.350 72.874
184.690 3.500 76.603
184.700 3.440 57.229
184.710 3.610 75.506
184.730 3.380 77.046
184.740 3.550 73.780
184.750 3.670 78.704
184.760 3.570 89.431
184.770 3.370 85.147
184.780 3.540 88.766
184.790 3.440 68.409
184.800 3.280 62.693
184.810 3.430 54.590
184.820 3.470 60.767
184.830 3.560 80.708
184.850 3.580 82.781
184.860 3.460 76.679
184.870 3.540 62.537
184.880 3.910 75.607
184.900 3.660 67.136
184.910 3.650 87.592
184.920 3.440 74.248
184.930 3.460 65.404
184.940 3.440 74.164
184.950 3.420 60.332
184.960 3.620 74.743
184.970 3.450 60.684
184.980 3.480 72.755
184.990 3.310 75.550
185.000 3.620 89.301
185.010 3.680 85.069
185.020 3.630 82.029
185.040 3.320 89.863
185.050 3.400 85.701
185.060 3.850 72.071
185.070 3.460 75.088
185.080 3.530 84.639
185.090 3.690 71.662
185.110 3.510 88.840
185.120 3.440 86.577
185.130 3.470 75.991
185.140 3.500 73.411
185.180 3.690 79.481
185.190 3.490 84.656
185.200 3.350 56.200
185.210 3.400 81.218
185.220 3.390 61.045
185.230 3.480 82.544
185.260 3.820 73.981
185.270 3.590 57.812
185.280 3.350 76.082
185.290 3.520 83.104
185.350 3.420 54.856
185.360 3.580 83.409
185.370 3.610 75.914
185.400 3.470 73.801
185.410 3.540 72.534
185.430 3.400 88.702
185.440 3.560 86.081
185.470 3.780 78.246
185.480 3.650 82.611
185.490 3.680 73.569
185.500 3.590 72.121
185.510 3.630 76.669
185.520 3.790 88.666
185.620 3.650 76.426
185.640 3.470 84.634
185.650 3.690 86.551
185.690 3.410 78.187
185.720 3.650 88.269
185.730 3.610 89.789
185.770 3.570 86.915
185.780 3.500 83.589
185.820 3.410 88.353
185.900 3.500 77.070
185.910 3.440 74.142
185.930 3.710 74.007
185.940 3.670 85.445
185.970 3.350 75.969
186.010 3.540 89.474
186.020 3.520 86.813
186.040 3.510 72.095
186.060 3.460 67.602
186.070 3.560 83.205
186.080 3.380 71.280
186.090 3.280 67.721
186.120 3.710 88.114
186.130 3.420 55.860
186.140 3.410 69.022
186.150 3.610 79.390
186.160 3.480 77.973
186.170 3.960 66.372
186.180 4.010 61.301
186.190 3.610 70.918
186.200 3.410 60.944
186.210 3.960 66.846
186.220 3.750 74.028
186.230 3.370 61.270
186.240 3.620 79.895
186.250 3.460 52.457
186.260 3.590 74.160
186.270 3.540 36.166
186.280 3.520 83.200
186.290 3.560 56.158
186.300 3.390 53.492
186.310 3.430 87.695
186.320 3.410 60.422
186.330 3.840 56.186
186.340 3.900 89.448
186.350 3.960 69.435
186.360 3.630 76.048
186.370 3.830 83.535
186.380 3.500 30.063
186.390 3.560 62.711
186.400 3.520 60.495
186.410 3.540 63.433
186.420 3.210 48.897
186.430 3.690 87.718
186.440 3.570 56.300
186.450 3.540 84.465
186.460 3.600 83.396
186.470 3.630 79.011
186.480 3.500 58.842
186.490 3.730 74.576
186.500 3.210 65.781
186.510 3.290 62.832
186.520 3.320 75.805
186.530 3.700 86.475
186.540 3.400 78.062
186.550 3.410 77.521
186.570 3.560 70.092
186.580 3.640 79.944
186.590 3.480 62.562
186.600 3.450 89.052
186.610 3.690 84.797
186.630 3.370 79.218
186.640 3.510 73.157
186.650 3.260 56.554
186.660 3.160 59.329
186.670 3.490 86.309
186.680 3.500 89.261
186.690 3.530 75.446
186.710 3.260 69.564
186.720 3.420 80.824
186.730 3.300 84.343
186.740 3.400 72.993
186.750 3.300 85.492
186.800 3.330 71.572
186.820 3.460 88.569
186.830 3.500 69.885
186.840 3.450 55.182
186.850 3.560 66.380
186.860 3.550 68.010
186.880 3.690 89.414
186.890 3.850 81.754
186.900 3.490 68.901
186.910 3.690 88.133
186.920 3.580 79.964
186.940 3.930 60.914
186.950 3.300 71.157
186.970 3.580 80.971
186.980 3.770 80.530
186.990 3.360 70.190
187.000 3.490 86.469
187.010 3.710 71.031
187.020 3.530 84.443
187.050 3.570 80.940
187.060 3.630 86.019
187.070 3.230 75.494
187.080 3.880 45.622
187.090 3.530 76.066
187.100 3.450 55.905
187.110 3.500 69.267
187.120 3.440 79.637
187.130 3.260 63.015
187.140 3.250 54.989
187.160 3.290 82.152
187.170 3.710 58.760
187.180 3.430 80.544
187.190 3.510 71.731
187.200 3.610 68.362
187.210 3.860 74.200
187.220 3.530 68.246
187.230 3.710 77.931
187.240 3.550 63.521
187.250 3.400 69.669
187.270 3.260 59.525
187.280 3.190 59.392
187.290 3.520 52.815
187.300 3.400 88.242
187.320 3.770 63.973
187.330 3.340 75.897
187.360 3.820 79.367
187.370 3.510 67.648
187.380 3.330 89.178
187.390 3.460 88.239
187.410 3.300 61.772
187.420 3.600 87.903
187.430 3.490 66.428
187.440 3.490 72.917
187.460 3.460 78.892
187.470 3.610 89.295
187.490 3.700 72.203
187.500 3.740 60.403
187.510 3.420 67.056
187.530 3.580 81.718
187.560 3.670 76.299
187.570 3.420 71.012
187.580 3.830 77.493
187.590 3.920 71.441
187.610 3.520 89.455
187.620 3.580 64.839
187.640 4.140 60.636
187.650 3.650 64.660
187.660 3.660 85.466
187.680 3.940 65.055
187.690 3.370 69.574
187.700 3.380 77.772
187.710 3.500 79.819
187.720 3.440 80.836
187.730 3.380 78.990
187.740 3.380 87.936
187.780 3.550 79.775
187.790 3.340 87.388
187.810 3.420 77.301
187.820 3.260 62.817
187.830 3.410 71.353
187.850 3.450 72.632
187.860 3.580 87.887
187.870 3.430 77.115
187.950 3.380 76.142
187.970 3.570 86.912
188.000 3.670 81.780
188.010 3.500 82.378
188.020 3.500 72.920
188.030 3.550 78.699
188.050 3.340 72.822
188.070 3.380 78.704
188.090 3.990 65.430
188.110 3.510 72.728
188.130 3.470 77.321
188.150 3.500 77.577
188.160 3.540 74.445
188.170 3.300 72.390
188.180 3.470 75.827
188.200 3.330 76.343
188.210 3.290 66.527
188.220 3.630 72.241
188.230 3.210 69.301
188.260 3.370 75.974
188.280 3.570 85.181
188.300 3.420 88.017
188.310 3.620 78.824
188.330 3.600 79.969
188.390 3.270 70.993
188.400 3.450 83.222
188.420 3.460 78.187
188.430 3.740 86.700
188.440 3.520 85.175
188.450 3.240 69.412
188.460 3.440 76.609
188.480 3.410 87.493
188.520 3.200 62.169
188.530 3.500 85.326
188.540 3.470 78.070
188.550 3.330 72.663
188.570 3.140 81.236
188.620 3.470 86.168
188.630 3.490 86.088
188.680 3.830 89.537
188.690 3.630 74.619
188.700 3.450 78.796
188.730 3.350 74.309
188.740 3.740 65.916
188.750 3.530 79.719
188.760 3.340 74.206
188.770 3.440 75.938
188.780 3.460 64.621
188.790 3.480 82.117
188.800 3.590 77.935
188.810 3.240 66.349
188.820 3.360 61.850
188.830 3.570 86.683
188.840 3.510 75.786
188.850 3.490 73.087
188.860 3.740 83.302
188.870 3.700 69.531
188.880 3.570 85.305
188.890 3.590 73.860
188.940 3.510 82.065
188.950 3.660 81.650
188.970 3.840 76.454
188.990 3.480 74.224
189.000 3.650 70.465
189.020 3.440 79.352
189.030 3.550 78.040
189.040 3.430 74.291
189.050 3.930 65.148
189.060 3.770 65.680
189.070 3.350 66.424
189.080 3.400 64.988
189.090 3.190 64.987
189.100 3.490 69.281
189.110 3.630 71.218
189.120 3.620 84.780
189.130 3.390 75.786
189.140 3.450 86.757
189.160 3.270 76.315
189.170 3.300 66.287
189.200 3.460 82.193
189.220 3.270 75.436
189.230 3.500 81.355
189.250 3.510 84.680
189.260 3.520 82.207
189.270 3.490 82.643
189.280 3.350 72.515
189.300 3.670 81.122
189.310 3.530 76.185
189.330 3.610 86.041
189.340 3.450 68.819
189.360 3.370 57.797
189.370 3.380 89.264
189.380 3.530 68.422
189.390 3.950 76.205
189.400 3.520 62.465
189.410 3.440 40.235
189.420 3.480 68.876
189.430 3.940 86.192
189.450 3.650 89.091
189.460 3.370 61.060
189.470 3.420 72.230
189.490 3.260 65.398
189.500 3.640 88.307
189.510 3.470 76.284
189.520 3.560 84.517
189.530 3.590 76.275
189.540 3.620 77.141
189.550 3.340 61.489
189.570 3.410 71.746
189.580 3.330 49.417
189.590 3.530 39.538
189.610 3.410 86.660
189.620 3.390 87.839
189.640 3.460 75.914
189.650 3.470 72.993
189.660 3.180 50.925
189.670 3.430 76.746
189.720 3.520 83.825
189.730 3.500 80.534
189.740 3.540 87.315
189.750 3.440 79.560
189.760 3.450 67.494
189.770 3.340 70.592
189.780 3.380 71.011
189.790 3.430 70.880
189.800 3.280 70.830
189.820 3.480 74.569
189.830 3.430 70.193
189.850 3.320 70.514
189.860 3.480 73.779
189.870 3.430 74.630
189.880 3.380 67.189
189.890 3.390 57.560
189.900 3.360 78.974
189.920 3.330 66.556
189.930 3.310 33.851
189.940 3.370 87.005
189.950 3.460 76.259
189.960 3.430 65.001
189.970 3.640 61.578
189.980 3.460 68.548
189.990 3.420 87.387
190.000 3.740 68.563
190.010 3.510 76.537
190.020 3.320 88.224
190.030 3.670 57.203
190.040 3.420 70.937
190.050 3.360 77.063
190.060 3.470 77.826
190.070 3.360 69.256
190.100 3.550 69.967
190.140 3.460 70.504
190.150 3.580 88.596
190.170 3.400 70.083
190.180 3.520 83.841
190.190 3.620 88.703
190.200 3.290 81.778
190.210 3.390 72.819
190.230 3.230 53.347
190.250 3.350 75.730
190.260 3.500 68.707
190.270 3.510 71.956
190.280 3.450 81.709
190.290 3.740 50.304
190.300 3.820 88.491
190.320 3.460 78.457
190.340 3.590 82.472
190.350 3.610 62.212
190.360 3.610 82.609
190.370 3.530 65.534
190.380 3.410 69.328
190.390 3.350 84.555
190.400 3.590 84.847
190.410 3.560 67.580
190.420 3.430 81.896
190.430 3.420 86.180
190.440 3.450 89.329
190.450 3.540 77.226
190.480 3.190 68.967
190.490 3.730 64.462
190.500 3.320 50.584
190.530 3.490 85.469
190.540 3.630 82.254
190.550 3.560 72.190
190.560 3.460 64.129
190.570 3.470 60.839
190.580 3.450 39.259
190.590 3.660 60.592
190.600 3.530 88.189
190.610 3.670 88.261
190.620 3.510 80.487
190.630 3.270 67.027
190.640 3.480 79.870
190.650 3.500 59.149
190.660 3.640 70.526
190.670 3.560 72.999
190.680 3.670 48.388
190.690 3.650 84.779
190.700 3.440 85.493
190.710 3.530 89.383
190.720 3.550 34.063
190.730 3.460 83.291
190.740 3.290 84.739
190.750 3.480 74.464
190.760 3.340 42.333
190.770 3.430 59.751
190.780 3.470 85.923
190.790 3.410 89.285
190.810 3.360 75.941
190.820 3.290 86.959
190.850 3.360 72.274
190.860 3.920 72.037
190.870 3.370 78.758
190.890 3.500 79.152
190.900 3.500 65.256
190.930 3.440 88.776
190.970 3.660 84.148
190.980 3.460 77.535
191.000 3.470 82.446
191.010 3.560 52.449
191.020 3.500 73.183
191.040 3.390 75.010
191.050 3.400 79.763
191.060 3.350 79.594
191.110 3.560 70.691
191.120 3.570 78.848
191.130 3.500 85.254
191.150 3.450 54.690
191.160 3.350 51.834
191.170 3.390 65.805
191.180 3.430 66.159
191.190 3.550 84.438
191.200 3.450 79.145
191.220 3.520 85.283
191.230 3.460 86.786
191.240 3.490 68.282
191.250 3.240 58.524
191.260 3.570 75.514
191.270 3.400 85.613
191.330 3.440 83.108
191.340 3.790 63.959
191.350 3.370 88.556
191.370 3.430 78.375
191.390 3.530 85.190
191.400 3.400 72.238
191.420 4.660 80.924
191.430 3.460 61.051
191.440 3.410 62.261
191.450 3.560 48.057
191.460 3.750 49.135
191.470 3.460 53.443
191.480 3.570 51.917
191.490 3.520 34.397
191.500 3.420 79.401
191.510 3.580 49.893
191.520 3.710 42.565
191.530 3.530 64.614
191.550 3.290 64.338
191.560 3.390 83.559
191.590 3.650 76.111
191.600 3.630 82.452
191.610 3.480 77.060
191.620 3.600 44.409
191.630 3.440 75.414
191.640 3.510 60.413
191.650 3.620 52.384
191.660 3.500 72.261
191.670 3.670 67.734
191.680 3.440 62.578
191.690 3.290 71.559
191.700 3.340 67.379
191.710 3.500 59.897
191.720 3.520 53.639
191.730 3.410 77.178
191.740 3.670 79.155
191.750 3.790 67.437
191.760 3.470 46.976
191.770 3.460 71.192
191.780 3.400 76.644
191.790 3.290 70.806
191.800 3.520 37.210
191.810 3.590 80.883
191.820 3.610 40.539
191.830 3.400 76.342
191.840 3.530 69.981
191.850 3.450 52.399
191.880 3.730 66.469
191.890 3.540 56.601
191.900 3.510 66.667
191.910 3.410 76.821
191.920 3.390 69.467
191.940 3.630 80.929
191.950 3.560 67.744
191.960 3.370 54.845
191.980 3.350 84.077
192.030 3.470 78.296
192.040 3.440 77.437
192.050 3.330 73.851
192.060 3.550 68.979
192.070 3.390 88.562
192.090 3.370 75.353
192.100 3.470 64.919
192.110 3.310 69.283
192.220 3.520 58.980
192.230 3.720 81.773
192.240 3.500 88.062
192.260 3.530 82.003
192.270 3.540 89.221
192.310 3.480 63.688
192.320 3.270 59.755
192.330 3.500 27.511
192.340 4.350 56.019
192.350 5.290 40.289
192.360 4.530 60.528
192.370 4.470 31.651
192.440 5.060 82.074
192.530 5.760 67.343
192.540 4.900 51.951
192.590 5.000 88.033
192.660 4.210 27.734
192.670 4.310 24.849
192.680 4.280 41.720
192.690 4.510 41.584
192.740 3.710 60.167
192.750 3.660 26.339
192.760 4.140 56.570
192.770 4.390 71.449
192.780 4.460 69.275
192.810 4.540 74.645
192.850 4.550 85.744
192.960 4.560 53.919
192.970 4.670 73.251
192.980 4.950 61.832
192.990 4.570 78.935
193.000 5.410 54.619
193.020 5.820 60.434
193.030 5.830 88.275
193.200 5.790 67.546
200.050 5.410 81.357
200.070 5.690 80.450
200.080 5.900 43.949
200.090 5.900 59.722
200.100 5.360 80.999
200.330 4.370 77.127
200.350 4.980 32.866
200.360 5.240 54.081
200.370 5.670 42.698
200.380 5.300 52.926
200.390 4.940 43.647
200.400 5.300 63.912
200.410 5.740 58.701
200.420 5.450 70.233
200.430 5.300 54.109
200.440 5.410 86.968
200.450 5.320 81.359
200.460 5.910 71.338
200.470 4.850 59.235
200.480 5.040 82.546
200.490 5.770 64.263
200.500 5.280 63.201
200.510 5.170 60.456
200.640 4.700 83.648
200.750 4.040 89.688
200.840 4.750 79.862
201.010 3.950 88.250
201.550 4.650 85.776
201.560 4.100 88.279
202.060 5.400 78.994
202.190 4.120 84.703
202.230 5.230 85.975
202.260 5.350 87.825
202.280 3.680 87.459
202.310 5.250 74.222
202.330 4.980 80.842
202.370 4.970 82.487
202.380 4.820 86.992
202.700 4.190 83.016
203.430 5.270 78.785
203.470 4.070 89.426
203.510 4.990 87.208
203.560 4.190 85.483
204.120 3.860 84.177
204.180 5.700 89.406
204.600 5.370 72.971
204.700 4.860 85.941
204.710 5.450 87.342
204.730 5.300 75.183
204.750 5.080 88.453
206.010 5.730 86.890
206.020 5.890 71.529
206.070 5.740 77.149
206.090 5.680 89.748
206.100 5.660 77.441
206.110 4.880 87.278
206.120 5.640 67.234
206.130 5.870 82.695
206.150 5.050 73.752
206.160 5.780 54.059
206.190 5.580 75.385
206.220 5.030 65.417
206.230 5.100 82.636
206.260 5.150 71.434
206.390 5.990 69.663
206.400 5.880 87.104
206.410 5.760 69.894
206.420 5.820 81.347
206.670 5.420 66.975
210.350 5.530 89.094
211.270 5.910 87.623
212.680 5.870 75.852
213.000 5.580 87.370
213.010 5.990 45.544
213.020 5.550 38.135
213.030 5.930 71.004
213.050 5.440 82.445
213.060 5.380 66.580
213.080 5.640 40.545
213.090 5.780 72.668
213.110 5.970 56.292
213.130 5.570 60.181
213.210 5.980 48.769
213.290 5.540 83.783
213.300 5.580 81.373
213.560 5.910 84.080
213.600 5.400 89.063
213.610 5.660 81.631
213.620 5.710 69.777
213.670 4.790 76.434
213.740 5.490 89.181
213.940 5.900 45.728
213.970 5.900 86.047
213.990 5.290 80.318
214.140 5.690 57.807
214.150 5.900 54.646
214.220 5.080 77.461
214.250 4.680 73.771
214.260 5.330 60.691
214.360 5.630 85.048
214.380 5.440 34.500
214.390 5.510 36.498
214.420 5.490 85.567
214.910 5.870 66.368
214.930 5.700 14.440
214.940 5.620 44.867
215.000 5.470 73.371
215.010 5.490 49.184
215.060 5.810 89.598
215.160 5.700 50.839
215.360 5.790 89.075
224.190 5.630 88.171
224.260 5.970 67.410
229.080 5.840 59.371
229.090 5.940 61.489
229.100 5.680 61.752
229.120 4.720 73.780
229.130 5.010 77.992
229.150 4.650 66.900
229.160 5.170 61.668
229.170 5.130 60.233
229.180 5.560 64.603
229.190 5.480 57.105
229.210 5.890 48.036
229.220 5.710 43.495
229.230 4.850 81.889
229.240 5.290 59.912
229.250 4.960 69.441
229.260 4.070 82.500
229.270 4.600 75.065
229.280 4.610 73.941
229.290 4.950 63.710
229.300 4.710 77.087
229.310 5.950 47.658
229.330 5.960 31.619
229.340 5.540 62.057
229.350 4.500 79.349
229.360 4.560 76.673
229.370 5.000 51.559
229.380 5.270 64.882
229.390 5.160 61.953
229.400 4.550 82.543
229.410 4.750 70.493
229.420 5.370 65.757
229.430 4.840 59.717
229.440 5.570 63.604
229.450 5.110 69.131
229.460 4.790 80.965
229.470 5.290 87.364
229.480 5.020 73.980
229.490 5.710 78.233
229.500 5.780 44.581
229.510 5.090 72.707
229.520 4.250 86.038
229.530 4.560 81.060
229.540 4.550 84.402
229.550 4.860 76.000
229.560 4.600 72.926
229.570 5.020 61.497
229.580 4.680 79.206
229.590 4.860 81.895
229.600 5.300 79.962
229.610 5.370 57.125
229.620 5.720 59.371
229.630 5.400 61.054
229.640 4.900 72.032
229.650 5.720 43.466
229.660 5.180 56.084
229.670 4.900 71.706
229.680 4.760 72.454
229.690 5.070 72.355
229.700 4.300 79.546
229.710 5.400 57.098
229.720 5.330 68.281
229.730 4.390 82.655
229.740 5.250 63.510
229.750 4.990 81.307
229.760 4.900 69.924
229.770 5.440 59.417
229.780 5.060 67.565
229.790 5.560 63.283
229.800 5.240 54.258
229.810 4.870 65.397
229.820 4.210 79.085
229.830 5.750 50.499
229.840 5.840 57.623
229.850 6.000 65.868
229.860 5.940 61.546
229.870 5.230 76.308
229.880 5.360 59.878
229.890 4.890 68.222
229.900 5.620 68.011
229.910 5.330 70.784
229.920 5.690 83.870
229.930 5.860 55.709
229.940 4.920 81.729
229.950 5.160 64.784
229.960 5.080 58.863
229.970 5.720 60.033
229.980 4.370 81.386
230.000 4.660 81.757
230.010 4.990 84.372
230.020 4.300 77.343
230.030 5.050 69.987
230.040 4.670 78.661
230.060 4.590 83.563
230.070 4.840 81.331
230.080 5.080 74.697
230.090 5.770 59.877
230.100 5.070 72.153
230.110 4.910 80.972
230.120 5.080 67.166
230.130 4.920 79.972
230.140 5.040 77.765
230.150 4.120 78.326
230.160 5.070 67.948
230.170 5.080 65.873
230.180 5.350 60.609
230.190 4.650 78.066
230.200 5.040 71.014
230.210 5.230 73.728
230.230 5.150 86.656
230.240 4.790 71.289
230.250 4.810 72.880
230.260 5.000 67.935
230.270 5.440 64.392
230.280 5.370 61.267
230.290 5.050 71.077
230.300 5.360 73.729
230.310 4.780 77.380
230.330 5.560 66.078
230.340 4.580 80.322
230.350 5.190 68.032
230.360 4.770 82.915
230.370 5.020 71.405
230.380 4.560 67.719
230.390 4.740 68.454
230.410 3.980 86.637
230.420 4.540 77.037
230.430 4.350 88.782
230.440 4.340 83.057
230.450 4.470 81.441
230.460 4.260 89.451
230.470 4.700 76.521
230.480 4.510 70.509
230.490 5.750 57.211
230.510 5.700 65.771
230.520 5.920 71.948
230.530 5.570 74.420
230.540 5.740 67.582
230.550 5.700 58.103
230.580 4.920 73.608
230.590 5.050 85.417
230.600 4.380 88.794
230.610 4.460 77.198
230.620 5.450 82.811
230.630 5.330 70.673
230.640 5.940 71.751
230.650 5.390 87.971
230.660 5.290 78.305
230.700 5.090 81.299
230.710 5.850 76.591
230.740 5.350 69.860
230.750 5.010 81.798
230.760 5.210 88.523
230.770 4.430 85.237
230.790 4.480 79.513
230.800 5.020 70.111
230.810 4.850 80.063
230.820 4.490 69.913
230.830 4.240 84.378
230.840 4.400 80.601
230.850 4.990 86.250
230.860 5.470 68.133
230.870 5.410 84.376
230.880 4.670 76.095
230.890 4.970 79.311
230.900 5.360 62.769
230.910 4.410 86.255
230.920 4.810 77.737
230.930 5.670 85.660
230.940 4.810 78.733
230.950 5.530 78.675
230.960 4.810 77.562
230.970 4.850 77.008
230.980 4.670 80.459
230.990 4.950 79.105
231.000 4.290 80.058
231.010 4.610 75.379
231.020 5.090 67.843
231.040 5.030 85.069
231.050 4.820 71.557
231.060 4.800 85.317
231.080 5.670 57.402
231.090 4.820 80.760
231.100 5.290 55.406
231.110 5.010 83.832
231.130 5.890 88.018
231.160 4.940 67.682
231.170 5.310 71.751
231.180 5.850 56.911
231.190 5.220 72.118
231.210 5.590 64.928
231.220 5.470 67.752
231.230 4.570 83.681
231.240 5.430 69.459
231.250 5.810 61.162
231.260 5.580 54.597
231.280 5.320 62.754
231.290 4.900 78.939
231.300 4.770 75.744
231.310 5.150 80.981
231.320 4.990 66.802
231.330 5.440 63.148
231.340 5.250 78.015
231.360 5.130 76.108
231.370 5.620 55.962
231.380 5.230 76.036
231.390 5.510 60.690
231.400 5.330 58.599
231.410 5.430 64.688
231.430 5.070 63.089
231.440 5.650 54.555
231.450 5.560 66.074
231.460 5.670 51.768
231.470 5.660 54.725
231.480 5.070 65.366
231.490 5.660 65.374
231.500 5.890 49.486
231.510 5.200 68.070
231.520 5.530 66.755
231.550 5.490 69.208
231.560 5.340 66.499
231.570 5.110 62.824
231.580 5.570 49.487
231.590 5.050 71.982
231.610 4.600 73.514
231.620 4.730 80.296
231.630 5.640 67.098
231.690 5.600 64.817
232.210 5.240 81.529
232.220 5.290 84.468
232.700 5.630 89.620
232.900 4.750 89.079
233.330 5.850 89.163
237.790 5.830 63.154
240.880 4.840 82.212
240.890 5.100 76.776
240.900 4.620 75.154
240.910 5.260 84.831
240.920 5.390 81.731
240.930 5.840 70.029
240.940 5.470 78.171
240.960 5.580 75.665
240.970 5.390 61.165
240.990 4.930 71.008
241.000 4.720 80.814
241.010 5.410 47.490
241.020 4.400 85.069
241.120 3.810 88.448
241.150 4.140 88.831
242.230 5.090 66.730
242.240 5.430 65.246
242.250 4.700 84.544
242.260 4.770 75.716
242.280 5.990 51.407
242.290 5.760 66.112
242.300 5.660 69.820
242.310 5.530 61.174
242.320 5.640 71.889
242.330 5.170 71.775
242.340 5.340 68.233
242.360 5.700 65.026
242.370 5.300 63.351
242.380 5.900 73.016
242.390 5.970 72.117
242.400 5.810 79.380
242.410 5.720 79.671
242.430 5.570 72.133
242.440 4.990 76.362
242.450 4.990 72.196
242.460 4.850 78.398
242.470 4.960 73.517
242.480 5.260 78.504
242.490 5.570 63.246
242.500 5.410 74.235
242.510 5.540 70.319
242.520 5.260 73.637
242.530 4.710 83.784
242.540 5.100 79.326
242.550 5.110 74.714
242.560 4.800 74.140
242.570 5.380 88.935
242.580 5.250 81.924
242.590 4.910 88.775
242.600 5.260 72.344
242.610 4.740 75.006
242.620 4.110 88.160
242.630 4.860 76.081
242.650 4.970 77.466
242.660 4.890 75.141
242.670 5.460 71.251
242.680 5.260 66.931
242.710 5.760 55.207
242.720 5.770 63.854
242.730 5.860 78.471
242.740 5.010 77.030
242.750 5.100 81.951
242.760 5.460 73.362
242.770 5.340 69.146
242.780 5.070 74.119
242.790 5.420 62.542
242.800 5.770 61.385
242.810 5.250 68.308
242.820 5.220 69.243
242.830 4.990 78.159
242.840 5.510 70.052
242.850 5.790 73.950
242.860 5.030 71.790
242.870 5.150 74.660
242.880 5.030 80.262
242.890 4.870 81.410
242.900 4.640 86.337
242.910 5.140 84.733
242.920 5.220 80.742
242.930 4.670 76.712
242.940 5.270 69.109
242.950 5.290 69.185
242.960 5.190 65.979
242.970 5.470 80.215
242.980 5.170 85.496
242.990 4.910 73.530
243.000 5.470 81.124
243.020 5.210 89.683
243.050 5.500 69.484
243.060 5.320 84.214
243.080 4.710 78.522
243.090 5.480 78.073
243.100 5.160 88.916
243.110 5.640 88.927
243.170 5.870 80.573
243.180 5.300 67.796
243.190 4.870 79.864
243.200 4.600 86.563
243.210 4.860 79.792
243.220 5.360 76.554
243.230 4.930 81.708
243.240 5.370 85.202
243.250 5.670 87.979
243.260 5.180 78.979
243.280 5.350 80.703
243.300 5.040 77.106
243.310 5.260 64.375
243.320 5.130 82.944
243.330 5.220 89.179
243.340 5.780 80.886
243.350 4.520 81.229
243.360 5.150 85.306
243.370 4.900 88.418
243.380 5.580 79.953
243.390 5.190 79.377
243.410 5.040 83.411
243.420 4.640 87.264
243.440 4.750 84.096
243.480 4.990 75.514
243.500 5.260 85.872
243.510 5.610 87.851
243.520 5.650 64.769
243.530 4.460 80.130
243.540 5.420 82.820
243.620 5.640 88.020
243.630 5.420 76.246
243.650 5.310 89.823
248.420 5.140 85.780
248.430 5.470 84.614
248.460 5.460 82.626
248.470 5.590 88.744
248.480 5.720 87.915
248.520 5.610 84.808
248.580 6.000 76.825
248.630 5.010 71.801
248.640 5.450 69.651
248.650 5.530 88.704
248.660 5.100 83.265
248.670 4.730 81.134
248.680 4.810 64.858
248.710 4.450 83.664
248.720 4.600 89.436
248.740 4.980 80.054
248.750 5.000 79.828
248.780 4.870 89.345
248.800 4.200 82.009
248.810 4.820 72.768
248.820 5.750 75.082
248.830 4.270 82.821
248.840 5.340 82.672
248.850 4.830 83.416
248.860 5.590 77.273
248.870 5.260 72.220
248.880 4.940 79.777
248.890 5.370 70.341
248.900 5.610 78.607
248.910 5.190 82.650
248.920 4.830 78.370
248.930 5.280 86.793
248.940 5.040 83.954
248.950 4.680 85.080
248.960 4.810 89.033
248.970 5.410 65.819
248.980 5.660 75.089
248.990 4.740 78.963
249.000 4.870 83.835
249.010 4.840 86.783
249.020 5.030 77.131
249.030 4.840 69.978
249.040 5.310 72.840
249.050 4.060 83.486
249.060 5.300 67.775
249.070 5.610 59.796
249.080 4.890 72.099
249.090 4.760 79.789
249.100 5.680 64.653
249.110 5.250 65.253
249.130 5.250 67.225
249.140 5.730 69.226
249.150 5.660 61.179
249.160 5.050 78.880
249.170 5.350 61.957
249.190 5.510 58.851
249.200 5.170 67.765
249.230 4.940 80.186
249.240 5.600 59.684
249.260 5.240 71.276
249.390 5.890 53.569
249.510 5.840 89.199
249.530 5.690 76.423
249.550 5.970 67.034
249.990 5.580 85.429
250.040 5.420 79.608
250.130 4.960 64.615
250.140 5.900 84.824
250.170 5.960 75.579
250.220 5.690 85.337
250.280 5.870 89.887
250.310 5.480 63.298
250.320 5.420 85.192
250.330 5.610 84.491
250.340 5.330 88.875
250.350 5.940 67.395
250.420 5.740 78.214
250.440 5.450 85.552
250.450 5.150 80.182
250.550 3.910 89.974
250.630 4.620 83.682
251.030 4.480 83.721
251.040 4.890 88.425
251.050 4.580 85.509
251.060 4.220 83.061
251.120 4.090 87.313
251.170 4.710 84.472
251.180 4.560 75.620
251.190 4.450 89.257
251.220 5.610 75.823
251.250 5.850 79.798
251.260 5.140 84.091
251.270 5.250 76.252
251.280 5.030 88.654
251.300 5.350 86.660
251.310 5.900 81.836
251.320 5.170 75.731
251.330 4.980 71.566
251.340 4.760 76.712
251.350 4.790 75.585
251.370 4.400 81.431
251.390 4.340 80.894
251.400 5.080 79.102
251.420 5.850 86.581
251.430 5.910 81.308
251.450 5.740 74.737
251.470 5.720 65.456
251.490 5.680 62.834
251.500 5.060 65.446
251.510 5.500 83.015
251.520 4.610 89.459
251.530 5.320 61.444
251.540 5.470 70.073
251.550 5.600 75.590
251.560 5.670 67.186
251.570 5.770 66.541
251.580 5.770 57.252
251.590 5.580 56.576
251.600 5.980 56.471
251.610 5.290 59.411
251.620 5.270 81.948
251.630 4.870 78.019
251.640 4.970 85.034
251.650 5.680 84.707
251.660 5.600 70.540
251.670 4.820 74.884
251.680 4.910 84.677
251.690 4.220 80.766
251.700 5.020 63.777
251.720 4.290 81.372
251.730 4.690 87.667
251.740 4.980 74.692
251.750 4.600 76.384
251.760 4.470 77.536
251.770 4.960 69.864
251.780 4.760 73.054
251.790 4.430 79.392
251.800 4.310 66.976
251.810 4.500 79.989
251.820 4.350 77.229
251.830 4.700 76.170
251.840 4.400 83.429
251.850 5.110 72.051
251.860 4.360 77.392
251.870 5.340 67.637
251.880 5.250 67.564
251.890 5.150 84.533
251.910 5.290 80.960
251.920 5.440 67.051
251.930 5.640 69.781
251.940 5.210 78.548
251.950 5.040 81.404
251.960 5.040 89.125
251.970 5.700 85.216
251.980 5.820 81.559
251.990 5.580 68.620
252.000 4.720 87.545
252.020 5.160 75.478
252.030 5.730 54.775
252.040 4.900 86.004
252.050 5.490 66.030
252.070 5.640 69.125
252.080 5.070 75.335
252.090 5.520 69.451
252.100 5.390 72.830
252.110 5.430 70.637
252.130 5.600 81.352
252.140 5.400 80.001
252.150 5.110 73.113
252.180 5.050 85.163
252.190 5.380 82.795
252.280 5.440 77.966
252.290 5.900 75.387
252.310 5.580 80.088
252.330 5.240 79.937
252.340 4.930 77.736
252.350 5.080 75.191
252.370 4.370 77.005
252.380 4.640 77.484
252.390 5.780 73.525
252.400 4.840 76.051
252.410 5.110 74.402
252.420 5.260 78.010
252.430 5.070 73.715
252.440 5.010 63.983
252.450 5.700 84.615
252.460 4.990 80.601
252.470 5.390 76.609
252.480 4.610 75.768
252.490 5.440 80.465
252.500 5.110 83.518
252.510 5.290 68.702
252.520 5.200 65.068
252.530 4.840 67.314
252.540 4.940 76.584
252.550 4.730 82.614
252.560 4.490 81.206
252.570 4.460 77.501
252.580 4.500 77.737
252.590 4.920 78.556
252.600 4.320 75.426
252.610 4.170 79.301
252.620 4.340 82.538
252.630 4.710 80.020
252.640 5.290 65.672
252.650 5.670 58.016
252.660 5.290 74.977
252.670 4.760 77.897
252.680 5.000 80.189
252.690 5.930 63.571
252.710 5.650 71.351
252.720 4.560 84.906
252.730 4.960 72.749
252.740 4.500 77.296
252.760 4.180 84.591
252.770 5.270 76.488
252.780 5.320 70.103
252.790 5.050 76.221
252.800 5.070 65.907
252.810 4.610 89.496
252.820 5.100 74.685
252.830 5.060 75.557
252.840 4.350 76.538
252.850 4.860 65.171
252.860 4.950 66.451
252.870 4.950 70.965
252.890 5.440 70.821
252.900 4.770 79.231
252.910 5.340 83.542
252.920 4.190 88.875
252.930 4.200 81.365
252.940 5.730 42.860
252.950 4.860 76.071
261.050 5.980 58.708
263.190 5.580 89.874
263.210 5.530 73.185
263.320 5.980 86.969
263.370 5.590 59.997
264.030 5.870 74.722
268.170 5.960 47.387
268.200 5.870 63.205
268.250 5.990 45.165
268.330 5.960 71.661
269.430 5.950 66.465
270.090 5.930 78.326
270.420 5.930 87.035
270.480 5.650 61.216
270.490 5.660 60.493
270.520 5.940 88.866
270.560 5.990 88.776
270.580 5.280 65.953
270.590 5.300 74.016
270.600 5.710 74.999
270.610 5.530 73.194
270.620 5.530 81.121
270.630 5.190 64.946
270.640 5.330 54.959
270.650 5.570 73.051
270.660 5.630 81.782
270.670 5.490 62.187
270.680 5.050 47.154
270.690 5.930 66.670
270.710 5.810 76.931
270.720 5.790 78.423
270.800 5.650 61.255
271.400 5.420 68.854
271.410 5.640 75.633
271.510 5.970 81.573
271.570 5.780 85.850
271.580 5.800 87.119
284.530 4.530 88.848
284.570 4.380 83.426
284.680 4.200 85.512
284.700 5.340 86.882
284.710 4.360 85.001
284.760 4.610 89.700
284.810 4.180 84.243
284.820 4.230 87.445
284.870 4.570 84.265
284.880 4.410 87.491
284.890 4.630 89.361
284.900 4.880 69.284
284.910 4.640 89.036
284.920 4.960 84.786
284.930 4.540 78.457
284.940 4.440 76.074
284.950 4.440 87.721
284.960 4.490 82.623
284.980 4.910 81.907
285.050 4.540 86.081
285.060 5.520 69.155
285.070 4.960 80.880
285.080 4.570 73.084
285.090 5.050 78.597
285.100 5.200 76.916
285.110 5.450 73.391
285.120 4.080 58.054
285.130 4.620 88.011
285.140 4.450 72.795
285.150 4.460 66.190
285.160 4.710 83.422
285.170 4.420 75.436
285.180 5.120 72.820
285.190 5.120 79.772
285.200 4.810 76.029
285.210 4.220 66.379
285.230 4.180 88.255
285.240 4.430 82.967
285.270 4.310 85.714
285.280 4.530 85.965
285.290 4.670 75.059
285.300 4.180 69.844
285.310 4.520 87.371
285.360 4.110 88.297
285.380 4.190 85.013
285.470 4.310 83.565
285.600 4.820 78.246
285.640 4.130 87.730
285.660 4.180 88.677
285.700 4.500 85.596
285.710 4.710 79.162
285.760 4.710 87.218
285.840 3.860 89.543
285.880 4.760 88.773
286.230 4.970 77.129
286.240 5.300 74.332
286.250 5.680 73.556
286.300 4.390 86.190
286.350 3.940 87.120
286.460 4.210 86.795
286.480 4.390 89.225
286.540 4.330 88.515
286.550 4.040 85.626
286.580 4.460 87.243
286.600 4.170 88.959
286.720 5.310 89.448
286.730 5.640 86.110
286.750 4.420 80.205
286.850 4.320 84.556
286.900 4.760 88.242
287.210 5.020 83.715
287.850 4.860 89.283
287.890 4.430 79.809
287.920 4.650 83.626
287.930 4.780 85.100
287.940 4.880 40.488
288.000 4.490 86.015
289.370 4.800 89.427
289.520 5.180 86.014
289.680 5.280 84.081
289.690 4.910 88.955
289.820 4.580 88.335
289.830 4.830 89.439
289.900 5.060 85.962
289.910 4.630 87.237
289.920 4.410 80.336
289.950 4.830 89.563
290.120 4.830 87.212
291.660 4.110 86.943
291.870 4.320 88.734
291.880 4.600 89.148
291.950 5.070 88.180
292.000 4.250 87.195
292.200 4.330 88.392
292.670 5.780 76.906
292.780 4.800 84.555
292.830 5.540 71.280
292.840 5.070 65.149
292.860 5.170 81.657
292.870 4.850 68.528
292.880 4.900 76.337
292.890 5.180 59.667
292.910 5.990 84.580
292.920 5.670 60.580
292.930 5.540 61.307
292.940 5.850 76.420
292.990 5.890 52.225
293.010 5.670 66.480
293.020 5.560 63.371
293.080 5.940 50.262
293.150 5.840 66.091
293.170 5.950 55.763
293.190 5.560 63.706
293.200 5.580 67.066
293.210 5.830 56.566
293.220 5.920 59.970
293.360 5.570 64.679
293.380 5.710 34.883
293.490 5.420 50.316
293.540 5.540 61.203
293.560 5.110 47.378
297.000 5.610 63.400
297.010 5.930 71.921
297.020 5.280 67.662
297.030 5.620 63.763
297.040 5.280 82.573
297.050 5.460 85.538
297.060 5.170 85.568
297.070 5.940 58.756
297.080 4.610 86.036
297.090 4.940 82.095
297.100 4.350 78.593
297.110 4.920 72.718
297.120 4.870 75.021
297.130 5.590 71.860
297.140 4.330 72.051
297.150 5.750 57.512
297.160 5.540 88.470
297.170 5.950 60.175
297.210 5.590 65.154
297.220 5.750 53.703
297.310 5.790 55.064
297.320 5.010 70.923
297.340 5.520 55.293
297.350 5.870 49.014
297.360 5.960 60.952
297.370 5.990 42.321
297.380 5.240 73.686
297.390 5.590 60.817
297.400 5.400 56.795
297.410 5.560 59.738
297.460 5.010 60.866
297.470 5.150 72.408
297.480 4.570 75.242
297.490 4.970 74.052
297.500 5.420 60.251
297.510 5.190 65.239
297.520 5.660 59.150
297.530 5.480 64.137
297.540 5.430 63.677
297.550 5.600 63.874
297.570 5.700 62.195
297.580 5.090 66.600
297.590 5.390 80.959
297.610 5.420 60.751
297.620 4.550 72.774
297.630 4.450 88.553
297.640 5.400 56.188
297.650 5.150 85.527
297.700 5.490 81.450
298.130 5.400 78.187
298.140 4.460 87.396
298.150 4.890 78.765
298.180 4.570 82.179
298.200 5.270 83.506
298.480 4.970 74.506
298.500 5.470 77.666
298.560 4.470 84.150
298.600 5.420 77.391
298.610 5.340 83.145
298.620 4.780 79.448
298.690 5.330 77.362
298.700 4.890 81.831
298.730 5.070 77.692
298.740 5.490 89.834
298.810 5.130 85.847
298.820 5.390 88.597
298.900 4.270 79.326
299.070 5.800 76.316
299.100 4.740 81.892
299.160 5.390 80.405
299.180 5.360 83.723
299.390 4.910 84.498
299.490 4.890 84.753
299.500 5.250 89.324
299.540 5.070 85.298
299.610 5.020 85.473
299.620 4.930 89.336
299.760 4.630 74.078
299.770 5.110 87.617
299.790 5.510 70.174
299.810 5.010 85.491
299.870 4.830 84.590
